TRANSMISSION%TAU_TOTAL = (
  0.706946E-007  0.535383       0.142892       0.605826E-003  0.162010E-003  0.184980E-021  0.271250E-006  0.171565E-004  0.184726E-021  0.184735E-021
  0.186370E-021  0.185445E-021  0.185556E-021  0.185967E-021  0.109646E-002  0.239204E-001  0.221092       0.806821E-001  0.112416E-008  0.314611E-001
  0.807148       0.814551       0.457063       0.320507       0.520620E-007  0.567658       0.778643E-001  0.671223E-003  0.467081E-004  0.185808E-021
  0.158853E-006  0.198113E-004  0.185606E-021  0.185614E-021  0.187025E-021  0.186233E-021  0.186341E-021  0.186744E-021  0.897423E-003  0.223369E-001
  0.193045       0.535457E-001  0.161661E-010  0.158774E-001  0.780903       0.793461       0.437087       0.308663       0.742978E-005  0.851595     
  0.803982E-001  0.195402E-002  0.114923E-003  0.554776E-024  0.189818E-002  0.165410E-004  0.183390E-021  0.183401E-021  0.185294E-021  0.184198E-021
  0.184332E-021  0.184831E-021  0.964341E-002  0.184944       0.314209       0.532860E-001  0.155393E-009  0.200492E-001  0.785032       0.805533     
  0.570219       0.541746       0.252502E-006  0.637974       0.599431E-001  0.700281E-003  0.129936E-004  0.187649E-021  0.842489E-006  0.336419E-004
  0.187503E-021  0.187509E-021  0.188558E-021  0.187946E-021  0.188031E-021  0.188356E-021  0.125928E-002  0.373438E-001  0.194471       0.371636E-001
  0.172150E-012  0.961795E-002  0.764457       0.780616       0.440983       0.321041       0.563129E-004  0.967046       0.156567       0.369505E-001
  0.223562E-002  0.390856E-007  0.103443       0.139526E-003  0.191084E-021  0.191086E-021  0.191444E-021  0.191198E-021  0.191232E-021  0.191373E-021
  0.698433E-001  0.455274       0.491788       0.133351       0.127048E-006  0.928315E-001  0.880606       0.895439       0.726171       0.808885     
  0.398259E-006  0.738228       0.614529E-001  0.487266E-003  0.961330E-006  0.189623E-021  0.178873E-005  0.442411E-004  0.189541E-021  0.189545E-021
  0.190207E-021  0.189831E-021  0.189882E-021  0.190079E-021  0.100361E-002  0.402847E-001  0.167892       0.208726E-001  0.725502E-014  0.321862E-002
  0.730823       0.755016       0.432175       0.345852     
 )
TRANSMISSION%TAU_LEVELS = (
   1.00000        1.00000        1.00000        1.00000        1.00000        1.00000        1.00000        1.00000        1.00000        1.00000     
   1.00000        1.00000        1.00000        1.00000        1.00000        1.00000        1.00000        1.00000        1.00000        1.00000     
   1.00000        1.00000        1.00000        1.00000        1.00000        1.00000        1.00000        1.00000        1.00000        1.00000     
   1.00000        1.00000        1.00000        1.00000        1.00000        1.00000        1.00000        1.00000        1.00000        1.00000     
   1.00000        1.00000        1.00000        1.00000        1.00000        1.00000        1.00000        1.00000        1.00000        1.00000     
   1.00000        1.00000        1.00000        1.00000        1.00000        1.00000        1.00000        1.00000        1.00000        1.00000     
   1.00000        1.00000        1.00000        1.00000        1.00000        1.00000        1.00000        1.00000        1.00000        1.00000     
   1.00000        1.00000        1.00000        1.00000        1.00000        1.00000        1.00000        1.00000        1.00000        1.00000     
   1.00000        1.00000        1.00000        1.00000        1.00000        1.00000        1.00000        1.00000        1.00000        1.00000     
   1.00000        1.00000        1.00000        1.00000        1.00000        1.00000        1.00000        1.00000        1.00000        1.00000     
   1.00000        1.00000        1.00000        1.00000        1.00000        1.00000        1.00000        1.00000        1.00000        1.00000     
   1.00000        1.00000        1.00000        1.00000        1.00000        1.00000        1.00000        1.00000        1.00000        1.00000     
   1.00000        1.00000        1.00000        1.00000        1.00000        1.00000        1.00000        1.00000        1.00000        1.00000     
   1.00000        1.00000        1.00000        1.00000        1.00000        1.00000        1.00000        1.00000        1.00000        1.00000     
   1.00000        1.00000        1.00000        1.00000     
 
  0.999297        1.00000       0.999813       0.999998       0.999968       0.999998       0.999995       0.999984       0.999797       0.999989     
  0.999951       0.999861       0.998693       0.999976       0.999859       0.999839       0.999692       0.999860       0.993924       0.999999     
   1.00000        1.00000        1.00000        1.00000       0.999439        1.00000       0.999816       0.999998       0.999969       0.999999     
  0.999996       0.999991       0.999851       0.999992       0.999960       0.999903       0.998900       0.999982       0.999869       0.999839     
  0.999704       0.999882       0.994393       0.999999        1.00000        1.00000        1.00000        1.00000       0.999243        1.00000     
  0.999848       0.999998       0.999976       0.999998       0.999996       0.999987       0.999867       0.999993       0.999971       0.999908     
  0.999253       0.999986       0.999891       0.999887       0.999768       0.999877       0.994566       0.999996        1.00000        1.00000     
   1.00000        1.00000       0.999543        1.00000       0.999826       0.999998       0.999973       0.999999       0.999997       0.999994     
  0.999889       0.999994       0.999968       0.999931       0.999087       0.999986       0.999884       0.999849       0.999731       0.999903     
  0.994893        1.00000        1.00000        1.00000        1.00000        1.00000       0.999336        1.00000       0.999879       0.999999     
  0.999985       0.999998       0.999997       0.999989       0.999912       0.999995       0.999982       0.999938       0.999559       0.999991     
  0.999930       0.999934       0.999858       0.999914       0.995862       0.999994        1.00000        1.00000        1.00000        1.00000     
  0.999296        1.00000       0.999829       0.999998       0.999972       0.999999       0.999996       0.999989       0.999858       0.999992     
  0.999965       0.999904       0.999088       0.999984       0.999875       0.999859       0.999724       0.999871       0.994211       0.999999     
   1.00000        1.00000        1.00000        1.00000     
 
  0.998088        1.00000       0.999026       0.999992       0.999865       0.999981       0.999972       0.999865       0.998943       0.999937     
  0.999795       0.999186       0.994780       0.999869       0.999443       0.999466       0.998967       0.999423       0.984832       0.999958     
   1.00000        1.00000       0.999999        1.00000       0.998328        1.00000       0.999146       0.999993       0.999880       0.999988     
  0.999978       0.999918       0.999245       0.999956       0.999840       0.999444       0.995834       0.999908       0.999501       0.999486     
  0.999032       0.999505       0.986001       0.999975        1.00000        1.00000       0.999999        1.00000       0.998197        1.00000     
  0.999368       0.999994       0.999909       0.999988       0.999980       0.999915       0.999368       0.999965       0.999878       0.999531     
  0.996949       0.999930       0.999596       0.999628       0.999241       0.999540       0.986920       0.999955        1.00000        1.00000     
  0.999999        1.00000       0.998600        1.00000       0.999388       0.999994       0.999900       0.999994       0.999984       0.999954     
  0.999468       0.999969       0.999876       0.999624       0.996702       0.999935       0.999580       0.999534       0.999145       0.999603     
  0.987501       0.999989        1.00000        1.00000       0.999999        1.00000       0.998456        1.00000       0.999554       0.999996     
  0.999948       0.999992       0.999987       0.999941       0.999604       0.999979       0.999927       0.999710       0.998222       0.999959     
  0.999759       0.999794       0.999562       0.999705       0.990118       0.999955        1.00000        1.00000        1.00000        1.00000     
  0.998382        1.00000       0.999397       0.999994       0.999904       0.999991       0.999982       0.999938       0.999398       0.999966     
  0.999872       0.999561       0.996714       0.999929       0.999580       0.999570       0.999166       0.999554       0.987147       0.999982     
   1.00000        1.00000       0.999999        1.00000     
 
  0.996604        1.00000       0.995921       0.999977       0.999599       0.999915       0.999894       0.999420       0.997296       0.999817     
  0.999586       0.997687       0.989692       0.999616       0.998615       0.998922       0.997971       0.998641       0.974132       0.999720     
   1.00000       0.999999       0.999998       0.999999       0.996904        1.00000       0.996513       0.999981       0.999649       0.999942     
  0.999916       0.999603       0.997892       0.999864       0.999649       0.998259       0.991185       0.999717       0.998736       0.998948     
  0.998045       0.998750       0.975856       0.999781        1.00000       0.999999       0.999998       0.999999       0.996995        1.00000     
  0.997373       0.999985       0.999732       0.999952       0.999932       0.999668       0.998236       0.999892       0.999709       0.998576     
  0.992835       0.999783       0.998968       0.999180       0.998383       0.998890       0.977504       0.999782        1.00000        1.00000     
  0.999999       0.999999       0.997287        1.00000       0.997538       0.999985       0.999709       0.999963       0.999937       0.999742     
  0.998384       0.999899       0.999707       0.998711       0.992558       0.999790       0.998906       0.999015       0.998192       0.998918     
  0.978199       0.999860        1.00000        1.00000       0.999998       0.999999       0.997517        1.00000       0.998365       0.999991     
  0.999851       0.999970       0.999960       0.999791       0.998844       0.999934       0.999805       0.999104       0.995273       0.999872     
  0.999379       0.999523       0.999011       0.999288       0.982391       0.999837        1.00000        1.00000       0.999999        1.00000     
  0.997266        1.00000       0.997634       0.999985       0.999728       0.999962       0.999940       0.999736       0.998299       0.999893     
  0.999700       0.998622       0.992472       0.999778       0.998927       0.999045       0.998211       0.998876       0.978448       0.999882     
   1.00000        1.00000       0.999998       0.999999     
 
  0.994382       0.999999       0.987916       0.999939       0.999013       0.999761       0.999702       0.998433       0.995231       0.999647     
  0.999412       0.995782       0.985503       0.999202       0.997308       0.998357       0.997039       0.997729       0.960177       0.998998     
  0.999999       0.999999       0.999996       0.999997       0.994716       0.999999       0.989807       0.999947       0.999116       0.999811     
  0.999743       0.998749       0.995897       0.999705       0.999459       0.996407       0.986590       0.999359       0.997460       0.998345     
  0.997045       0.997768       0.961778       0.999036       0.999999       0.999999       0.999996       0.999997       0.995234       0.999999     
  0.991215       0.999962       0.999311       0.999862       0.999806       0.999064       0.996541       0.999762       0.999524       0.997003     
  0.988318       0.999502       0.997891       0.998627       0.997431       0.998026       0.965506       0.999306       0.999999       0.999999     
  0.999997       0.999998       0.995309       0.999999       0.992434       0.999958       0.999266       0.999865       0.999800       0.999089     
  0.996621       0.999765       0.999518       0.997084       0.988020       0.999502       0.997742       0.998392       0.997150       0.997919     
  0.965177       0.999239       0.999999       0.999999       0.999997       0.999998       0.996297        1.00000       0.994737       0.999978     
  0.999615       0.999919       0.999891       0.999446       0.997590       0.999848       0.999640       0.998002       0.991238       0.999696     
  0.998702       0.999141       0.998274       0.998699       0.973087       0.999595        1.00000       0.999999       0.999998       0.999999     
  0.995518        1.00000       0.992102       0.999963       0.999296       0.999874       0.999818       0.999142       0.996537       0.999754     
  0.999510       0.996949       0.987843       0.999468       0.997746       0.998344       0.997084       0.997842       0.966673       0.999482     
  0.999999       0.999999       0.999997       0.999998     
 
  0.990956       0.999998       0.973800       0.999856       0.997859       0.999500       0.999323       0.996872       0.992969       0.999468     
  0.999271       0.994077       0.982191       0.998659       0.995508       0.997840       0.996285       0.996823       0.942926       0.997565     
  0.999998       0.999997       0.999990       0.999993       0.991185       0.999998       0.977035       0.999867       0.998032       0.999552     
  0.999370       0.997184       0.993540       0.999515       0.999303       0.994520       0.982881       0.998832       0.995640       0.997786     
  0.996233       0.996768       0.943303       0.997342       0.999998       0.999998       0.999992       0.999994       0.992502       0.999999     
  0.978347       0.999909       0.998440       0.999691       0.999541       0.997972       0.994548       0.999595       0.999368       0.995232     
  0.984540       0.999070       0.996302       0.998090       0.996618       0.997143       0.950434       0.998326       0.999998       0.999998     
  0.999994       0.999995       0.992054       0.999998       0.981974       0.999893       0.998331       0.999648       0.999482       0.997740     
  0.994376       0.999582       0.999354       0.995160       0.984072       0.999037       0.996003       0.997778       0.996255       0.996839     
  0.947126       0.997639       0.999998       0.999998       0.999993       0.999995       0.994517       0.999999       0.986186       0.999951     
  0.999094       0.999824       0.999744       0.998813       0.995993       0.999717       0.999476       0.996492       0.987214       0.999397     
  0.997623       0.998719       0.997525       0.998057       0.961756       0.999217       0.999999       0.999999       0.999996       0.999997     
  0.992445       0.999999       0.979222       0.999903       0.998343       0.999664       0.999515       0.997823       0.994250       0.999563     
  0.999346       0.994961       0.983907       0.998956       0.995893       0.997621       0.996085       0.996668       0.949696       0.998275     
  0.999998       0.999998       0.999993       0.999995     
 
  0.985934       0.999996       0.954970       0.999705       0.995688       0.999153       0.998671       0.994941       0.990628       0.999305     
  0.999122       0.992723       0.978963       0.998037       0.993224       0.997366       0.995665       0.995899       0.922711       0.995847     
  0.999996       0.999995       0.999977       0.999987       0.985802       0.999996       0.958662       0.999709       0.995930       0.999172     
  0.998693       0.995082       0.991020       0.999335       0.999149       0.993002       0.979507       0.998187       0.993285       0.997271     
  0.995567       0.995743       0.921237       0.995197       0.999996       0.999995       0.999979       0.999988       0.988405       0.999997     
  0.959573       0.999802       0.996695       0.999443       0.999053       0.996462       0.992397       0.999423       0.999222       0.993674     
  0.981167       0.998500       0.994150       0.997566       0.995925       0.996238       0.932887       0.997048       0.999996       0.999996     
  0.999983       0.999991       0.986772       0.999996       0.965314       0.999752       0.996436       0.999287       0.998856       0.995683     
  0.991813       0.999390       0.999200       0.993468       0.980587       0.998410       0.993653       0.997191       0.995512       0.995713     
  0.924422       0.995278       0.999996       0.999996       0.999982       0.999990       0.991950       0.999999       0.971095       0.999893     
  0.997994       0.999686       0.999467       0.997915       0.994276       0.999563       0.999332       0.994940       0.983744       0.998961     
  0.996056       0.998278       0.996839       0.997402       0.948833       0.998762       0.999998       0.999998       0.999991       0.999994     
  0.987264       0.999997       0.959066       0.999766       0.996383       0.999299       0.998895       0.995747       0.991626       0.999369     
  0.999190       0.993272       0.980376       0.998272       0.993313       0.996932       0.995273       0.995452       0.927823       0.996207     
  0.999996       0.999996       0.999983       0.999989     
 
  0.979174       0.999992       0.932720       0.999450       0.991983       0.998752       0.997645       0.992861       0.988288       0.999151     
  0.998925       0.991519       0.975075       0.997388       0.990482       0.996946       0.995148       0.994905       0.898286       0.994330     
  0.999992       0.999991       0.999948       0.999977       0.978392       0.999991       0.936440       0.999439       0.992180       0.998708     
  0.997590       0.992732       0.988457       0.999166       0.998951       0.991692       0.975553       0.997486       0.990413       0.996810     
  0.995014       0.994656       0.894685       0.993319       0.999992       0.999992       0.999950       0.999978       0.982729       0.999994     
  0.938039       0.999604       0.993441       0.999141       0.998231       0.994715       0.990142       0.999260       0.999037       0.992348     
  0.977293       0.997827       0.991488       0.997083       0.995352       0.995294       0.911929       0.995921       0.999993       0.999993     
  0.999960       0.999982       0.978871       0.999992       0.943563       0.999482       0.992814       0.998785       0.997734       0.993120     
  0.989047       0.999205       0.999007       0.992024       0.976674       0.997672       0.990696       0.996658       0.994895       0.994509     
  0.895755       0.992898       0.999993       0.999992       0.999957       0.999981       0.988223       0.999997       0.952007       0.999772     
  0.995768       0.999506       0.998961       0.996784       0.992435       0.999406       0.999172       0.993546       0.980182       0.998398     
  0.993983       0.997854       0.996257       0.996716       0.933302       0.998270       0.999996       0.999996       0.999976       0.999989     
  0.979427       0.999993       0.935072       0.999495       0.992470       0.998806       0.997763       0.993215       0.988824       0.999184     
  0.998983       0.991835       0.976124       0.997474       0.989996       0.996278       0.994588       0.994147       0.900209       0.994172     
  0.999992       0.999992       0.999955       0.999978     
 
  0.970505       0.999981       0.904785       0.999018       0.986463       0.998304       0.996158       0.990669       0.985823       0.998981     
  0.998634       0.990187       0.969744       0.996725       0.987263       0.996540       0.994643       0.993602       0.866603       0.993032     
  0.999985       0.999985       0.999891       0.999962       0.968864       0.999981       0.908290       0.998977       0.986385       0.998179     
  0.995955       0.990259       0.985768       0.998981       0.998651       0.990264       0.970056       0.996760       0.987006       0.996366     
  0.994482       0.993262       0.860700       0.991801       0.999985       0.999985       0.999892       0.999962       0.975369       0.999986     
  0.913169       0.999236       0.988180       0.998789       0.996954       0.992797       0.987688       0.999086       0.998751       0.990973     
  0.971823       0.997094       0.988441       0.996629       0.994837       0.994122       0.884190       0.995006       0.999987       0.999987     
  0.999910       0.999968       0.968245       0.999981       0.915540       0.998996       0.986784       0.998167       0.995946       0.990292     
  0.986083       0.999003       0.998708       0.990492       0.971155       0.996868       0.987093       0.996156       0.994322       0.993012     
  0.858564       0.990942       0.999986       0.999986       0.999899       0.999964       0.982996       0.999992       0.931006       0.999526     
  0.991802       0.999277       0.998100       0.995404       0.990307       0.999243       0.998934       0.992193       0.975397       0.997730     
  0.991476       0.997462       0.995759       0.995873       0.912045       0.997758       0.999992       0.999992       0.999942       0.999979     
  0.968746       0.999982       0.904576       0.998977       0.985703       0.998215       0.995898       0.990456       0.985798       0.998974     
  0.998636       0.990240       0.969708       0.996618       0.986015       0.995661       0.993959       0.992527       0.862767       0.992568     
  0.999983       0.999984       0.999889       0.999959     
 
  0.959827       0.999959       0.868246       0.998319       0.979385       0.997798       0.994223       0.988370       0.983044       0.998769     
  0.998205       0.988514       0.962315       0.996032       0.983544       0.996118       0.994092       0.991784       0.824657       0.991869     
  0.999975       0.999976       0.999786       0.999940       0.957077       0.999957       0.871436       0.998215       0.978769       0.997573     
  0.993788       0.987675       0.982674       0.998745       0.998181       0.988413       0.961989       0.995989       0.983044       0.995906     
  0.993901       0.991306       0.815528       0.990494       0.999974       0.999975       0.999781       0.999939       0.966270       0.999967     
  0.882150       0.998581       0.981017       0.998371       0.995189       0.990731       0.984823       0.998867       0.998283       0.989232     
  0.963584       0.996315       0.985086       0.996167       0.994312       0.992467       0.845639       0.994221       0.999978       0.999979     
  0.999810       0.999947       0.954922       0.999956       0.878260       0.998157       0.978407       0.997445       0.993470       0.987343     
  0.982656       0.998742       0.998209       0.988481       0.962595       0.996002       0.982828       0.995633       0.993697       0.990881     
  0.808852       0.989391       0.999974       0.999975       0.999781       0.999938       0.976073       0.999979       0.905691       0.999049     
  0.985894       0.998983       0.996804       0.993770       0.987713       0.999049       0.998541       0.990599       0.968169       0.996982     
  0.988623       0.997068       0.995270       0.994631       0.881032       0.997199       0.999985       0.999986       0.999871       0.999964     
  0.955082       0.999954       0.863174       0.998019       0.976294       0.997517       0.993243       0.987522       0.982166       0.998688     
  0.998029       0.988028       0.959445       0.995698       0.981401       0.995031       0.993281       0.990182       0.809364       0.991232     
  0.999969       0.999971       0.999746       0.999927     
 
  0.947136       0.999916       0.823244       0.997258       0.971173       0.997217       0.991920       0.985974       0.979775       0.998494     
  0.997594       0.986345       0.952376       0.995272       0.979289       0.995646       0.993445       0.989320       0.770001       0.990764     
  0.999960       0.999963       0.999609       0.999912       0.942973       0.999909       0.826612       0.997028       0.969785       0.996860     
  0.991171       0.984973       0.978865       0.998421       0.997465       0.985870       0.950528       0.995124       0.978518       0.995388     
  0.993215       0.988622       0.755676       0.989267       0.999958       0.999961       0.999585       0.999906       0.955327       0.999925     
  0.843646       0.997503       0.972387       0.997860       0.992987       0.988520       0.981272       0.998565       0.997546       0.986830     
  0.951562       0.995455       0.981326       0.995653       0.993713       0.990127       0.792481       0.993499       0.999964       0.999966     
  0.999628       0.999917       0.938842       0.999902       0.832027       0.996795       0.968278       0.996594       0.990424       0.984274     
  0.978330       0.998372       0.997397       0.985605       0.949738       0.995030       0.977904       0.995045       0.992953       0.987895     
  0.741664       0.988013       0.999956       0.999958       0.999559       0.999900       0.967157       0.999948       0.873936       0.998208     
  0.978263       0.998586       0.995047       0.991855       0.984415       0.998783       0.997904       0.988430       0.957357       0.996147     
  0.985380       0.996631       0.994725       0.992728       0.835746       0.996537       0.999976       0.999976       0.999734       0.999941     
  0.938117       0.999886       0.810077       0.996380       0.964913       0.996653       0.989911       0.984369       0.977359       0.998257     
  0.997010       0.984713       0.943675       0.994611       0.975931       0.994315       0.992455       0.986820       0.733332       0.989980     
  0.999947       0.999950       0.999463       0.999880     
 
  0.932397       0.999843       0.771807       0.995728       0.961891       0.996534       0.989304       0.983460       0.975863       0.998133     
  0.996757       0.983558       0.939703       0.994401       0.974413       0.995116       0.992681       0.986180       0.700784       0.989652     
  0.999939       0.999945       0.999326       0.999875       0.926532       0.999825       0.776583       0.995280       0.959533       0.996008     
  0.988183       0.982103       0.974081       0.997973       0.996428       0.982419       0.935304       0.994109       0.973378       0.994806     
  0.992401       0.985179       0.678755       0.988021       0.999934       0.999940       0.999262       0.999864       0.942168       0.999848     
  0.798553       0.995845       0.962360       0.997201       0.990369       0.986070       0.976734       0.998137       0.996451       0.983494     
  0.935287       0.994444       0.976947       0.995069       0.992999       0.986969       0.721053       0.992695       0.999944       0.999947     
  0.999319       0.999877       0.919830       0.999801       0.779591       0.994718       0.956538       0.995557       0.986919       0.980963     
  0.972644       0.997833       0.996148       0.981486       0.931842       0.993856       0.972221       0.994371       0.992045       0.983998     
  0.653217       0.986605       0.999928       0.999933       0.999171       0.999849       0.955718       0.999886       0.834750       0.996807     
  0.968847       0.998033       0.992784       0.989578       0.980071       0.998396       0.996910       0.985315       0.941995       0.995162     
  0.981530       0.996123       0.994068       0.989891       0.770792       0.995738       0.999960       0.999962       0.999484       0.999910     
  0.916894       0.999750       0.746575       0.993737       0.951142       0.995506       0.985924       0.980779       0.970730       0.997591     
  0.995378       0.979761       0.921228       0.993196       0.969146       0.993469       0.991384       0.982271       0.627544       0.988547     
  0.999911       0.999918       0.998935       0.999814     
 
  0.915594       0.999731       0.716232       0.993619       0.951161       0.995725       0.986371       0.980778       0.971211       0.997666     
  0.995646       0.980075       0.924308       0.993383       0.968850       0.994543       0.991799       0.982403       0.616576       0.988470     
  0.999910       0.999919       0.998895       0.999830       0.907664       0.999693       0.723200       0.992833       0.947535       0.994979     
  0.984825       0.978983       0.968149       0.997365       0.994986       0.977920       0.916268       0.992881       0.967519       0.994175     
  0.991451       0.981024       0.584470       0.986657       0.999902       0.999911       0.998753       0.999809       0.926260       0.999723     
  0.747668       0.993440       0.950355       0.996333       0.987271       0.983244       0.970934       0.997536       0.994894       0.978994     
  0.914651       0.993194       0.971701       0.994433       0.992149       0.982941       0.629124       0.991688       0.999915       0.999920     
  0.998821       0.999825       0.897167       0.999631       0.722171       0.991665       0.942227       0.994235       0.982875       0.977181     
  0.965105       0.997041       0.994278       0.975738       0.908234       0.992336       0.965482       0.993620       0.990932       0.979147     
  0.541152       0.984942       0.999888       0.999896       0.998519       0.999781       0.941393       0.999781       0.788393       0.994629     
  0.957131       0.997278       0.989951       0.986878       0.974371       0.997831       0.995422       0.980932       0.921506       0.993937     
  0.976827       0.995560       0.993288       0.985972       0.682533       0.994795       0.999936       0.999940       0.999057       0.999867     
  0.890936       0.999520       0.676018       0.989836       0.933830       0.993980       0.981278       0.976585       0.961969       0.996615     
  0.992951       0.972935       0.892460       0.991333       0.960813       0.992533       0.990034       0.976559       0.494451       0.986704     
  0.999857       0.999868       0.998040       0.999723     
 
  0.896721       0.999575       0.659091       0.990833       0.938421       0.994768       0.983092       0.977872       0.965775       0.997075     
  0.994212       0.975879       0.906404       0.992197       0.962575       0.993935       0.990791       0.977992       0.519218       0.987149     
  0.999872       0.999886       0.998270       0.999774       0.886175       0.999504       0.667059       0.989558       0.933026       0.993739     
  0.981049       0.975537       0.960974       0.996562       0.993042       0.972316       0.893537       0.991383       0.960791       0.993500     
  0.990338       0.976115       0.475795       0.985071       0.999857       0.999870       0.998001       0.999741       0.906980       0.999537     
  0.690550       0.990100       0.935355       0.995198       0.983589       0.979919       0.963580       0.996703       0.992713       0.973100     
  0.889368       0.991603       0.965300       0.993745       0.991119       0.977930       0.517065       0.990379       0.999872       0.999882     
  0.998057       0.999757       0.870495       0.999377       0.659485       0.987458       0.924266       0.992567       0.978227       0.972822     
  0.955516       0.995932       0.991592       0.968232       0.879005       0.990366       0.957434       0.992801       0.989563       0.973217     
  0.412310       0.982851       0.999829       0.999842       0.997514       0.999691       0.924124       0.999624       0.735335       0.991528     
  0.942531       0.996295       0.986526       0.983740       0.967159       0.997037       0.993300       0.975133       0.896045       0.992389     
  0.971089       0.994955       0.992363       0.980973       0.572581       0.993661       0.999901       0.999907       0.998391       0.999810     
  0.859024       0.999165       0.598777       0.984286       0.910794       0.991941       0.975711       0.971513       0.950547       0.995206     
  0.989370       0.963871       0.856863       0.988855       0.950445       0.991478       0.988283       0.969150       0.343333       0.984191     
  0.999773       0.999792       0.996615       0.999601     
 
  0.875836       0.999368       0.603936       0.987279       0.923075       0.993642       0.979423       0.974695       0.959512       0.996339     
  0.992383       0.970952       0.886068       0.990828       0.955625       0.993285       0.989639       0.972828       0.413421       0.985619     
  0.999821       0.999840       0.997410       0.999705       0.861782       0.999249       0.609527       0.985341       0.915241       0.992253     
  0.976771       0.971655       0.952453       0.995527       0.990470       0.965571       0.867310       0.989571       0.953071       0.992763     
  0.989011       0.970219       0.359670       0.983136       0.999796       0.999815       0.996951       0.999657       0.884016       0.999282     
  0.628780       0.985721       0.916634       0.993766       0.979268       0.976013       0.954487       0.995582       0.989741       0.965711     
  0.859735       0.989607       0.957626       0.992981       0.989848       0.971760       0.392507       0.988655       0.999812       0.999827     
  0.996970       0.999671       0.839710       0.999031       0.593324       0.981997       0.901858       0.990516       0.972900       0.967782     
  0.943771       0.994441       0.987872       0.958948       0.844682       0.987881       0.947967       0.991885       0.987865       0.965853     
  0.281602       0.980180       0.999745       0.999766       0.996099       0.999577       0.902777       0.999402       0.673927       0.987279     
  0.923772       0.995016       0.982324       0.979946       0.957907       0.995918       0.990258       0.967529       0.864887       0.990368     
  0.963894       0.994251       0.991182       0.974602       0.442488       0.992151       0.999848       0.999858       0.997400       0.999735     
  0.821064       0.998667       0.519706       0.976854       0.880821       0.989322       0.969057       0.965414       0.936270       0.993256     
  0.984252       0.952453       0.814828       0.985682       0.937946       0.990235       0.986003       0.959359       0.199913       0.980796     
  0.999649       0.999680       0.994569       0.999441     
 
  0.853023       0.999105       0.553869       0.982909       0.904705       0.992328       0.975326       0.971204       0.952342       0.995435     
  0.990065       0.965239       0.863290       0.989262       0.948043       0.992567       0.988313       0.966741       0.306730       0.983809     
  0.999755       0.999781       0.996289       0.999624       0.834274       0.998922       0.553230       0.980116       0.893699       0.990486     
  0.971910       0.967239       0.942504       0.994219       0.987131       0.957647       0.837829       0.987422       0.944324       0.991927     
  0.987415       0.963048       0.246897       0.980723       0.999714       0.999740       0.995576       0.999554       0.857317       0.998955     
  0.566147       0.980282       0.893915       0.992021       0.974285       0.971483       0.943594       0.994124       0.985793       0.956807     
  0.826143       0.987177       0.948706       0.992105       0.988278       0.964220       0.269024       0.986413       0.999729       0.999751     
  0.995539       0.999565       0.803896       0.998578       0.525931       0.975027       0.873832       0.987991       0.966633       0.961779     
  0.929371       0.992429       0.982677       0.947474       0.804449       0.984745       0.936789       0.990792       0.985704       0.956389     
  0.164183       0.976701       0.999626       0.999658       0.994199       0.999434       0.877046       0.999116       0.607763       0.981905     
  0.900715       0.993438       0.977346       0.975434       0.946570       0.994418       0.986106       0.958132       0.828946       0.987845     
  0.955246       0.993420       0.989680       0.966738       0.307132       0.990095       0.999771       0.999789       0.996065       0.999641     
  0.776980       0.998034       0.444822       0.967337       0.843167       0.986124       0.961083       0.958105       0.918953       0.990622     
  0.977087       0.938466       0.766764       0.981744       0.923292       0.988713       0.983052       0.946494       0.908818E-001  0.976236     
  0.999469       0.999516       0.991838       0.999239     
 
  0.828336       0.998788       0.510456       0.977682       0.883096       0.990830       0.970767       0.967382       0.944280       0.994343     
  0.987176       0.958752       0.838365       0.987498       0.939833       0.991757       0.986780       0.959530       0.208369       0.981641     
  0.999671       0.999704       0.994891       0.999528       0.803631       0.998531       0.501511       0.973833       0.868160       0.988456     
  0.966395       0.962234       0.931157       0.992604       0.982891       0.948557       0.805669       0.984941       0.934602       0.990963     
  0.985502       0.954326       0.149772       0.977724       0.999604       0.999641       0.993856       0.999433       0.826646       0.998568     
  0.505644       0.973710       0.866837       0.989978       0.968535       0.966217       0.930700       0.992247       0.980592       0.946213     
  0.788620       0.984258       0.938504       0.991076       0.986339       0.954988       0.161159       0.983517       0.999616       0.999649     
  0.993739       0.999439       0.763210       0.998046       0.462146       0.966475       0.839867       0.985043       0.959275       0.954666     
  0.912151       0.989765       0.975565       0.933594       0.758795       0.980895       0.923962       0.989470       0.982998       0.944452     
  0.776425E-001  0.972234       0.999460       0.999508       0.991787       0.999258       0.846090       0.998787       0.539637       0.975272     
  0.872548       0.991580       0.971404       0.969997       0.932795       0.992421       0.980463       0.946656       0.788234       0.984731     
  0.944953       0.992401       0.987738       0.956932       0.183025       0.987272       0.999662       0.999690       0.994333       0.999525     
  0.726947       0.997326       0.379500       0.955558       0.797289       0.982480       0.951474       0.949335       0.898384       0.987112     
  0.967214       0.921574       0.713420       0.976968       0.906552       0.986787       0.979244       0.930031       0.292215E-001  0.970111     
  0.999211       0.999281       0.988354       0.998990     
 
  0.801901       0.998436       0.474705       0.971571       0.858028       0.989198       0.965675       0.963201       0.935372       0.993044     
  0.983629       0.951515       0.811632       0.985545       0.930988       0.990828       0.985007       0.951044       0.126981       0.979039     
  0.999563       0.999606       0.993203       0.999417       0.769815       0.998101       0.455504       0.966432       0.838291       0.986229     
  0.960090       0.956562       0.918504       0.990651       0.977623       0.938349       0.771549       0.982148       0.923883       0.989830     
  0.983206       0.943821       0.775302E-001  0.974007       0.999461       0.999510       0.991771       0.999290       0.791978       0.998149     
  0.449156       0.965950       0.835149       0.987697       0.961892       0.960087       0.915631       0.989852       0.973804       0.933725     
  0.747383       0.980796       0.927015       0.989842       0.983945       0.943812       0.812073E-001  0.979804       0.999465       0.999512     
  0.991547       0.999288       0.718406       0.997492       0.407184       0.956475       0.800674       0.981819       0.950784       0.946367     
  0.892432       0.986380       0.966307       0.917456       0.710014       0.976393       0.909920       0.987868       0.979671       0.930020     
  0.284306E-001  0.966570       0.999239       0.999307       0.988890       0.999052       0.810060       0.998449       0.475179       0.967342     
  0.839242       0.989526       0.964437       0.963537       0.916519       0.989826       0.972997       0.932988       0.743559       0.980995     
  0.933124       0.991112       0.985219       0.944894       0.896888E-001  0.983506       0.999511       0.999553       0.992178       0.999386     
  0.671220       0.996631       0.325197       0.941368       0.743441       0.978583       0.940014       0.938840       0.874298       0.982475     
  0.953838       0.901305       0.655542       0.971234       0.887784       0.984178       0.974196       0.909575       0.580904E-002  0.961896     
  0.998847       0.998951       0.984029       0.998687     
 
  0.774060       0.998068       0.445761       0.964511       0.829330       0.987495       0.960002       0.958665       0.925605       0.991505     
  0.979268       0.943469       0.782909       0.983377       0.921410       0.989723       0.982925       0.941149       0.678937E-001  0.975925     
  0.999426       0.999480       0.991198       0.999289       0.733025       0.997663       0.414778       0.957865       0.804151       0.983891     
  0.952932       0.950182       0.904570       0.988311       0.971154       0.926978       0.735781       0.979032       0.912147       0.988446     
  0.980410       0.931360       0.329671E-001  0.969435       0.999274       0.999340       0.989294       0.999126       0.752921       0.997730     
  0.398867       0.956803       0.798385       0.985224       0.954168       0.952883       0.897995       0.986771       0.964904       0.918908     
  0.702180       0.976673       0.914150       0.988269       0.980894       0.930267       0.323691E-001  0.975010       0.999263       0.999328     
  0.988889       0.999110       0.668063       0.996958       0.361104       0.944631       0.755266       0.978332       0.940753       0.936423     
  0.869645       0.982025       0.954233       0.898453       0.658144       0.971089       0.894322       0.985739       0.975328       0.912365     
  0.711249E-002  0.959169       0.998937       0.999034       0.985364       0.998807       0.768764       0.998146       0.419598       0.957967     
  0.800581       0.987363       0.956314       0.955855       0.897466       0.986464       0.963202       0.916806       0.695284       0.976552     
  0.919797       0.989341       0.981810       0.930201       0.337604E-001  0.978529       0.999303       0.999364       0.989534       0.999221     
  0.610239       0.996058       0.281487       0.924744       0.682867       0.974666       0.926656       0.926378       0.846542       0.976411     
  0.936087       0.877203       0.594171       0.964394       0.867124       0.980387       0.967267       0.884936       0.553144E-003  0.950955     
  0.998345       0.998495       0.978793       0.998330     
 
  0.745103       0.997708       0.421155       0.956423       0.796956       0.985787       0.953723       0.953779       0.914834       0.989664     
  0.973825       0.934411       0.751565       0.980925       0.910915       0.988333       0.980399       0.929719       0.310220E-001  0.972170     
  0.999253       0.999320       0.988839       0.999143       0.693554       0.997256       0.379226       0.948114       0.766013       0.981539     
  0.944890       0.943054       0.889261       0.985509       0.963233       0.914280       0.698288       0.975545       0.899399       0.986665     
  0.976918       0.916848       0.109761E-001  0.963843       0.999034       0.999122       0.986399       0.998938       0.710021       0.997360     
  0.357262       0.946304       0.757155       0.982680       0.945373       0.944533       0.877835       0.982882       0.953514       0.901661     
  0.654019       0.971859       0.900132       0.986163       0.976931       0.914301       0.962008E-002  0.968924       0.998998       0.999087     
  0.985752       0.998905       0.613326       0.996514       0.323990       0.931013       0.704776       0.974783       0.929281       0.924827     
  0.844326       0.976608       0.939127       0.876832       0.605116       0.965024       0.877379       0.982778       0.969581       0.891513     
  0.105180E-002  0.949767       0.998536       0.998671       0.981189       0.998525       0.722677       0.997913       0.375280       0.947093     
  0.757075       0.985179       0.947030       0.946847       0.875751       0.982205       0.950684       0.898032       0.644431       0.971368     
  0.905160       0.986817       0.977138       0.912685       0.906472E-002  0.972090       0.999025       0.999112       0.986362       0.999031     
  0.544206       0.995647       0.247241       0.905312       0.616132       0.970725       0.911233       0.911584       0.814572       0.968417     
  0.912562       0.848279       0.529083       0.956119       0.844442       0.974752       0.957668       0.855657       0.118177E-004  0.936442     
  0.997657       0.997872       0.972493       0.997910     
 
  0.715137       0.997387       0.400374       0.947237       0.760955       0.984146       0.946800       0.948508       0.902770       0.987424     
  0.966907       0.923999       0.716906       0.978088       0.899391       0.986476       0.977211       0.916645       0.116794E-001  0.967552     
  0.999034       0.999119       0.986088       0.998975       0.651605       0.996915       0.349495       0.937100       0.724131       0.979258     
  0.935930       0.935129       0.872431       0.982141       0.953508       0.900012       0.658829       0.971614       0.885629       0.984256     
  0.972441       0.900148       0.264408E-002  0.957005       0.998728       0.998843       0.983039       0.998725       0.663919       0.997074     
  0.323490       0.934521       0.712429       0.980157       0.935596       0.935019       0.855444       0.978089       0.939368       0.882048     
  0.604164       0.966349       0.885147       0.983297       0.971776       0.895978       0.194674E-002  0.961348       0.998659       0.998780     
  0.982135       0.998675       0.555685       0.996189       0.293948       0.915707       0.650598       0.971302       0.916558       0.911856     
  0.817450       0.970141       0.921073       0.853169       0.552742       0.958318       0.859299       0.978671       0.962087       0.867670     
  0.649071E-004  0.938133       0.998019       0.998203       0.976367       0.998208       0.671695       0.997749       0.339383       0.934473     
  0.708518       0.982927       0.936415       0.936454       0.851306       0.976830       0.934783       0.876323       0.590753       0.965313     
  0.889089       0.983204       0.970756       0.892020       0.146604E-002  0.963782       0.998653       0.998777       0.982579       0.998811     
  0.474515       0.995368       0.220501       0.882793       0.544378       0.966472       0.893669       0.893978       0.776949       0.957489     
  0.880515       0.812299       0.458037       0.945638       0.819751       0.966841       0.945034       0.821747       0.149431E-007  0.917600     
  0.996732       0.997036       0.965045       0.997416     
 
  0.684378       0.997127       0.384745       0.936913       0.721694       0.982629       0.939256       0.942873       0.889090       0.984656     
  0.958009       0.911816       0.678193       0.974748       0.886864       0.983945       0.973125       0.901899       0.344694E-002  0.961818     
  0.998761       0.998869       0.982917       0.998786       0.607495       0.996654       0.326233       0.924725       0.678821       0.977051     
  0.926023       0.926315       0.853833       0.978066       0.941524       0.883821       0.617101       0.967139       0.870861       0.980981     
  0.966701       0.881167       0.390487E-003  0.948659       0.998341       0.998493       0.979169       0.998487       0.614368       0.996863     
  0.295206       0.921215       0.664022       0.977573       0.924671       0.924194       0.830565       0.972154       0.921825       0.859599     
  0.552343       0.959985       0.869005       0.979384       0.965074       0.875012       0.207395E-003  0.951910       0.998226       0.998388     
  0.977960       0.998414       0.494353       0.995953       0.268187       0.898061       0.591563       0.967711       0.902142       0.897123     
  0.788404       0.962237       0.899070       0.826600       0.499436       0.950683       0.839494       0.972988       0.952308       0.840073     
  0.733792E-006  0.923488       0.997338       0.997590       0.970696       0.997843       0.616789       0.997634       0.309565       0.920100     
  0.655654       0.980513       0.924490       0.924560       0.823850       0.970020       0.914584       0.851084       0.534148       0.958164     
  0.871707       0.978450       0.962661       0.868465       0.797758E-004  0.953280       0.998170       0.998341       0.978192       0.998561     
  0.403180       0.995161       0.199161       0.857118       0.469934       0.961258       0.874082       0.872583       0.729855       0.941202     
  0.833417       0.763669       0.374993       0.930934       0.793019       0.956844       0.929771       0.783747       0.901729E-011  0.893714     
  0.995512       0.995936       0.956459       0.996834     
 
  0.652830       0.996930       0.374029       0.925378       0.679437       0.981221       0.931084       0.936785       0.873533       0.981224     
  0.946611       0.897493       0.635612       0.970807       0.873324       0.980518       0.967910       0.885457       0.713748E-003  0.954693     
  0.998424       0.998561       0.979298       0.998575       0.561317       0.996461       0.307731       0.910863       0.630292       0.974852     
  0.915105       0.916471       0.833253       0.973114       0.926815       0.865377       0.573180       0.962009       0.855042       0.976596     
  0.959443       0.859822       0.250371E-004  0.938513       0.997857       0.998054       0.974749       0.998218       0.561538       0.996709     
  0.270728       0.906190       0.611963       0.974806       0.912473       0.911836       0.802845       0.964733       0.899960       0.833658     
  0.498046       0.952517       0.851605       0.974279       0.956692       0.851316       0.657401E-005  0.940217       0.997674       0.997890     
  0.973173       0.998118       0.432093       0.995778       0.245529       0.878441       0.530268       0.963879       0.886436       0.880637     
  0.756963       0.952534       0.872176       0.796483       0.444992       0.941853       0.818421       0.965948       0.940674       0.809670     
  0.107791E-008  0.905769       0.996479       0.996816       0.964309       0.997434       0.558476       0.997541       0.284862       0.903843     
  0.599067       0.977841       0.911272       0.911093       0.793935       0.961663       0.890014       0.822636       0.477173       0.949975     
  0.852892       0.972576       0.952983       0.842119       0.336893E-005  0.940147       0.997546       0.997780       0.973161       0.998277     
  0.332474       0.994978       0.181477       0.828367       0.395628       0.953641       0.852587       0.844631       0.664807       0.913214     
  0.755752       0.689506       0.272172       0.907011       0.764127       0.944989       0.912256       0.742392       0.245283E-012  0.864107     
  0.993936       0.994517       0.946804       0.996135     
 
  0.619444       0.996782       0.366595       0.912531       0.634224       0.979840       0.922118       0.929905       0.855872       0.977002     
  0.932439       0.880839       0.590821       0.966228       0.858732       0.976014       0.961377       0.867109       0.781255E-004  0.945859     
  0.998007       0.998181       0.975195       0.998337       0.513050       0.996317       0.291263       0.895454       0.579038       0.972549     
  0.903130       0.905388       0.810165       0.966989       0.908569       0.843989       0.526443       0.955993       0.838104       0.971115     
  0.950733       0.836179       0.373064E-006  0.926241       0.997256       0.997511       0.969765       0.997917       0.505937       0.996588     
  0.248576       0.889343       0.556949       0.971716       0.899013       0.897745       0.772100       0.955455       0.872899       0.803683     
  0.441834       0.943716       0.832842       0.968057       0.946780       0.824992       0.606729E-007  0.925853       0.996978       0.997263     
  0.967751       0.997783       0.369673       0.995628       0.224845       0.856730       0.467703       0.959672       0.869519       0.862538     
  0.723855       0.940869       0.840208       0.763069       0.390326       0.931800       0.795891       0.957613       0.927312       0.776605     
  0.187364E-010  0.884420       0.995398       0.995845       0.957177       0.996977       0.498346       0.997456       0.265325       0.885919     
  0.540520       0.974715       0.897000       0.895940       0.760248       0.950797       0.858559       0.788864       0.417039       0.939924     
  0.832895       0.965677       0.941984       0.813575       0.573421E-006  0.924151       0.996760       0.997072       0.967550       0.997958     
  0.264302       0.994796       0.166332       0.796285       0.323621       0.940643       0.828786       0.805529       0.570565       0.859041     
  0.618934       0.568505       0.151754       0.863521       0.732463       0.931261       0.892510       0.698006       0.372564E-013  0.827864     
  0.991917       0.992702       0.936061       0.995247     
 
  0.582350       0.996670       0.360950       0.898404       0.586652       0.978352       0.912134       0.921832       0.835324       0.971693     
  0.914796       0.861056       0.542968       0.960763       0.843177       0.970579       0.953669       0.846661       0.271048E-005  0.935088     
  0.997493       0.997713       0.970606       0.998071       0.463074       0.996199       0.275562       0.878496       0.525977       0.970016     
  0.890157       0.892946       0.784252       0.959381       0.885990       0.819071       0.476682       0.948861       0.820019       0.964633     
  0.940737       0.810410       0.403238E-008  0.911520       0.996515       0.996843       0.964225       0.997581       0.449195       0.996480     
  0.227914       0.870976       0.500910       0.968273       0.884617       0.882291       0.739607       0.944317       0.840965       0.770475     
  0.386212       0.933714       0.812979       0.960875       0.935619       0.796689       0.494158E-008  0.908724       0.996122       0.996493     
  0.961791       0.997414       0.308085       0.995481       0.205715       0.832788       0.404769       0.954871       0.851384       0.842473     
  0.688040       0.926405       0.801230       0.724720       0.333897       0.919888       0.771784       0.947996       0.912250       0.740905     
  0.146960E-011  0.858778       0.994042       0.994629       0.949242       0.996463       0.436870       0.997370       0.250111       0.866186     
  0.480714       0.970462       0.881550       0.877296       0.716697       0.934306       0.811899       0.741978       0.344172       0.925342     
  0.811456       0.957681       0.929608       0.782822       0.262219E-006  0.904746       0.995774       0.996187       0.961317       0.997588     
  0.201509       0.994608       0.153451       0.760936       0.256937       0.918241       0.802056       0.752080       0.442342       0.757931     
  0.409872       0.392674       0.521316E-001  0.787111       0.697634       0.915428       0.870390       0.651356       0.333954E-013  0.784803     
  0.989386       0.990429       0.924334       0.994069     
 
  0.539831       0.996553       0.355851       0.883026       0.537548       0.976479       0.900938       0.911792       0.809395       0.964428     
  0.891382       0.835522       0.487914       0.953570       0.826699       0.964356       0.944864       0.823977       0.102841E-006  0.922127     
  0.996843       0.997122       0.965536       0.997752       0.412077       0.996066       0.260362       0.859976       0.472015       0.966877     
  0.876204       0.878365       0.752291       0.948824       0.855005       0.786710       0.418138       0.939295       0.800759       0.957186     
  0.929538       0.782720       0.437218E-009  0.894008       0.995587       0.996004       0.958114       0.997174       0.392237       0.996359     
  0.208580       0.851128       0.444862       0.964332       0.869383       0.865272       0.704950       0.930696       0.802992       0.733147     
  0.331043       0.922035       0.792102       0.952802       0.923323       0.766657       0.807894E-009  0.888526       0.995062       0.995538     
  0.955296       0.996987       0.250503       0.995307       0.188686       0.807248       0.344582       0.948918       0.832536       0.819711     
  0.646282       0.906760       0.749790       0.676670       0.271923       0.904205       0.746671       0.937331       0.895893       0.703824     
  0.605090E-012  0.829188       0.992372       0.993128       0.940704       0.995858       0.376014       0.997269       0.237223       0.844949     
  0.421661       0.964167       0.864980       0.853244       0.656827       0.906841       0.737064       0.671687       0.252352       0.902082     
  0.788638       0.948508       0.915798       0.750460       0.257246E-006  0.881898       0.994553       0.995089       0.954558       0.997132     
  0.145878       0.994357       0.143081       0.721954       0.198110       0.880716       0.771096       0.682008       0.285626       0.587172     
  0.177723       0.192465       0.833103E-002  0.661308       0.659332       0.897199       0.845754       0.603111       0.326316E-013  0.735114     
  0.986229       0.987589       0.911725       0.992354     
 
  0.491628       0.996445       0.350701       0.866447       0.487682       0.973829       0.888462       0.898559       0.774409       0.953607     
  0.857939       0.800124       0.421410       0.943289       0.809311       0.957470       0.935016       0.799120       0.178978E-007  0.906672     
  0.996054       0.996408       0.960031       0.997396       0.360809       0.995935       0.246188       0.839929       0.418124       0.962361     
  0.861200       0.859824       0.707495       0.931548       0.805615       0.737816       0.340984       0.924079       0.780297       0.948844     
  0.917239       0.753327       0.732675E-010  0.873395       0.994471       0.994997       0.951475       0.996709       0.335934       0.996236     
  0.191525       0.829772       0.389601       0.959496       0.853311       0.845927       0.666047       0.913076       0.755190       0.688405     
  0.273190       0.907521       0.770118       0.943802       0.909824       0.734971       0.482726E-009  0.864913       0.993787       0.994391     
  0.948271       0.996515       0.197203       0.995130       0.173591       0.779670       0.287294       0.939990       0.812398       0.790523     
  0.586477       0.872691       0.665309       0.601423       0.191481       0.877510       0.719844       0.925214       0.877731       0.664916     
  0.596806E-012  0.794895       0.990347       0.991309       0.931463       0.995156       0.316448       0.997164       0.224817       0.821877     
  0.363895       0.953773       0.846878       0.820619       0.572261       0.857249       0.613484       0.563000       0.147418       0.862156     
  0.763826       0.937812       0.900214       0.716321       0.254432E-006  0.855151       0.993063       0.993752       0.947215       0.996564     
  0.977499E-001  0.994068       0.135282       0.677013       0.148033       0.816727       0.733536       0.589273       0.129598       0.345481     
  0.321984E-001  0.463677E-001  0.695244E-003  0.472662       0.616166       0.876112       0.818462       0.553129       0.317366E-013  0.678533     
  0.982365       0.984118       0.898232       0.989820     
 
  0.438601       0.996338       0.345510       0.848637       0.437778       0.969825       0.874634       0.880974       0.727474       0.936774     
  0.808486       0.749965       0.340760       0.928012       0.790985       0.949978       0.924136       0.772223       0.402311E-008  0.888387     
  0.995103       0.995549       0.954111       0.996990       0.309425       0.995813       0.234036       0.818297       0.365376       0.954429     
  0.844718       0.832841       0.636526       0.897501       0.713872       0.652197       0.231902       0.895336       0.758346       0.939584     
  0.903782       0.722291       0.469222E-010  0.849384       0.993150       0.993809       0.944345       0.996163       0.281413       0.996111     
  0.177392       0.806890       0.336032       0.952737       0.836198       0.822113       0.615307       0.885938       0.685078       0.625562     
  0.204529       0.885780       0.746887       0.933687       0.894900       0.701734       0.477445E-009  0.837612       0.992258       0.993018     
  0.940722       0.995978       0.149660       0.994962       0.160879       0.749873       0.234240       0.923204       0.790088       0.748045     
  0.487567       0.800704       0.507392       0.467166       0.912200E-001  0.822709       0.690616       0.911264       0.857603       0.624488     
  0.586847E-012  0.755773       0.987924       0.989136       0.921531       0.994281       0.260652       0.997049       0.213766       0.797504     
  0.309629       0.938289       0.827204       0.780725       0.471740       0.781274       0.452293       0.427245       0.656351E-001  0.804123     
  0.737488       0.925810       0.883241       0.681317       0.251099E-006  0.824756       0.991297       0.992167       0.939452       0.995871     
  0.595368E-001  0.993758       0.129442       0.622191       0.107475       0.710529       0.687647       0.469969       0.297728E-001  0.113209     
  0.795345E-003  0.225736E-002  0.155948E-003  0.243447       0.566524       0.851249       0.789120       0.502413       0.307263E-013  0.616161     
  0.977761       0.979984       0.883953       0.985847     
 
  0.381983       0.996193       0.340256       0.829495       0.388588       0.963221       0.859241       0.856621       0.663111       0.908279     
  0.730898       0.675281       0.244534       0.903517       0.771427       0.941828       0.912121       0.743394       0.269992E-008  0.866905     
  0.993948       0.994506       0.947769       0.996500       0.257657       0.995648       0.223765       0.794611       0.314863       0.937528     
  0.825288       0.789497       0.522086       0.823311       0.541436       0.500955       0.105507       0.836788       0.734081       0.929198     
  0.888917       0.689508       0.463968E-010  0.821564       0.991558       0.992377       0.936723       0.995403       0.229750       0.995947     
  0.165948       0.782252       0.284980       0.940980       0.817506       0.788427       0.533944       0.832229       0.559408       0.517373     
  0.115943       0.843921       0.721859       0.922130       0.878338       0.667005       0.471149E-009  0.806327       0.990417       0.991364     
  0.932601       0.995291       0.109662       0.994733       0.151078       0.717863       0.187481       0.889887       0.763752       0.685535     
  0.339046       0.654988       0.269609       0.267649       0.200956E-001  0.715450       0.658505       0.895462       0.836018       0.583792     
  0.575303E-012  0.712782       0.985075       0.986579       0.911112       0.993048       0.208286       0.996897       0.204854       0.771388     
  0.258834       0.917688       0.805444       0.735620       0.367181       0.681523       0.289251       0.289877       0.226695E-001  0.730453     
  0.709540       0.912460       0.864831       0.644937       0.247151E-006  0.789850       0.989171       0.990260       0.931151       0.995021     
  0.324965E-001  0.993314       0.124823       0.550496       0.758494E-001  0.547031       0.632875       0.328489       0.154159E-002  0.100149E-001
  0.161673E-006  0.245363E-005  0.933961E-005  0.629620E-001  0.507276       0.820436       0.758138       0.451859       0.296029E-013  0.549376     
  0.972294       0.975071       0.868667       0.978893     
 
  0.323592       0.996000       0.334991       0.808656       0.340830       0.950288       0.841509       0.819843       0.567395       0.852512     
  0.596775       0.553601       0.133984       0.858619       0.750024       0.932797       0.898793       0.712769       0.267393E-008  0.841857     
  0.992555       0.993251       0.940999       0.995857       0.206608       0.995418       0.214665       0.767227       0.267482       0.899302     
  0.799336       0.717993       0.348763       0.661970       0.272747       0.271443       0.202980E-001  0.717140       0.705737       0.917161     
  0.872474       0.655038       0.457967E-010  0.789527       0.989645       0.990654       0.928597       0.994152       0.182397       0.995727     
  0.156966       0.756034       0.237951       0.919635       0.796210       0.741232       0.417390       0.733463       0.371698       0.359289     
  0.408600E-001  0.769896       0.694755       0.909169       0.860367       0.631375       0.463846E-009  0.771295       0.988244       0.989410     
  0.924014       0.994383       0.762042E-001  0.994411       0.143356       0.680342       0.147027       0.823183       0.728973       0.590697     
  0.158025       0.398378       0.582836E-001  0.727118E-001  0.142996E-002  0.520018       0.621053       0.876819       0.812936       0.542484     
  0.562179E-012  0.665477       0.981713       0.983559       0.900092       0.991066       0.161203       0.996703       0.198585       0.744066     
  0.213652       0.888047       0.781316       0.681368       0.255550       0.547168       0.142558       0.159122       0.539965E-002  0.631210     
  0.680510       0.898226       0.845770       0.608285       0.242705E-006  0.751345       0.986703       0.988046       0.922574       0.993979     
  0.157495E-001  0.992650       0.120984       0.462599       0.521824E-001  0.354841       0.572938       0.198479       0.630959E-005  0.992376E-004
  0.482975E-014  0.215593E-011  0.802560E-009  0.564728E-002  0.440183       0.784319       0.725965       0.402568       0.283810E-013  0.480582     
  0.965925       0.969336       0.852311       0.967704     
 
  0.265583       0.995792       0.329811       0.785306       0.295181       0.924415       0.819650       0.764372       0.431562       0.744000     
  0.388931       0.373446       0.438849E-001  0.776726       0.725876       0.922550       0.884036       0.680516       0.264433E-008  0.812934     
  0.990911       0.991770       0.933800       0.994949       0.158605       0.995157       0.206465       0.732677       0.223866       0.827080     
  0.763656       0.615333       0.157885       0.397370       0.566405E-001  0.706407E-001  0.137968E-002  0.516692       0.671478       0.902529     
  0.854439       0.619178       0.451188E-010  0.753072       0.987397       0.988631       0.919940       0.991953       0.139576       0.995484     
  0.149901       0.728072       0.195745       0.886423       0.771162       0.682025       0.285640       0.587183       0.183091       0.195284     
  0.845945E-002  0.662173       0.665542       0.894837       0.841228       0.595013       0.455608E-009  0.732497       0.985723       0.987145     
  0.915044       0.993254       0.489789E-001  0.994033       0.136867       0.629214       0.112681       0.697996       0.681876       0.456010     
  0.307570E-001  0.115431       0.118933E-002  0.285614E-002  0.174542E-004  0.248668       0.574131       0.853521       0.788227       0.500192     
  0.547485E-012  0.613288       0.977760       0.980007       0.888241       0.987421       0.119141       0.996476       0.193983       0.713085     
  0.173613       0.829994       0.750119       0.598796       0.123281       0.333578       0.295137E-001  0.426712E-001  0.539814E-003  0.462640     
  0.646656       0.882127       0.825907       0.570825       0.237721E-006  0.708668       0.983824       0.985462       0.913546       0.992503     
  0.664068E-002  0.991772       0.117462       0.365941       0.348985E-001  0.182284       0.508964       0.103040       0.788593E-009  0.322470E-007
  0.192816E-021  0.192789E-021  0.574528E-014  0.982070E-004  0.369021       0.742729       0.692528       0.354801       0.270596E-013  0.411243     
  0.958574       0.962708       0.834737       0.951750     
 
  0.210106       0.995564       0.324741       0.757831       0.252251       0.877737       0.791422       0.687128       0.266730       0.560274     
  0.162689       0.173887       0.653270E-002  0.642060       0.697847       0.910572       0.867805       0.646816       0.261084E-008  0.779877     
  0.988982       0.990035       0.926147       0.993563       0.115856       0.994853       0.199254       0.687391       0.184432       0.720435     
  0.720877       0.494903       0.418769E-001  0.148727       0.250840E-002  0.538251E-002  0.349072E-003  0.286948       0.631040       0.884115     
  0.834881       0.582256       0.443593E-010  0.712178       0.984777       0.986274       0.910694       0.988392       0.101838       0.995219     
  0.144181       0.697126       0.158527       0.837001       0.741597       0.609730       0.160670       0.402230       0.563195E-001  0.722043E-001
  0.986152E-003  0.520091       0.633749       0.878803       0.821026       0.557882       0.446446E-009  0.689761       0.982808       0.984528     
  0.905662       0.991860       0.289753E-001  0.993560       0.131643       0.557614       0.847186E-001  0.515200       0.626289       0.305930     
  0.114284E-002  0.785414E-002  0.116361E-006  0.162658E-005  0.645367E-009  0.560372E-001  0.516453       0.824157       0.762355       0.458019     
  0.531473E-012  0.557733       0.973219       0.975920       0.875506       0.980429       0.833665E-001  0.996205       0.190240       0.675186     
  0.139027       0.737524       0.712405       0.494250       0.348286E-001  0.128680       0.133278E-002  0.331658E-002  0.371922E-004  0.262274     
  0.606691       0.864309       0.805382       0.532913       0.232246E-006  0.662188       0.980498       0.982478       0.904045       0.990214     
  0.246378E-002  0.990574       0.114180       0.271097       0.229009E-001  0.671373E-001  0.440988       0.448679E-001  0.584884E-017  0.595129E-013
  0.192799E-021  0.192769E-021  0.329961E-019  0.154628E-006  0.298592       0.695725       0.658603       0.310129       0.256794E-013  0.344987     
  0.950357       0.955286       0.816230       0.930923     
 
  0.159252       0.995302       0.319781       0.723120       0.212504       0.801977       0.755825       0.587010       0.115725       0.317932     
  0.292643E-001  0.403377E-001  0.630077E-003  0.451147       0.664603       0.895820       0.850119       0.611881       0.257318E-008  0.742504     
  0.986730       0.988009       0.917989       0.991383       0.799992E-001  0.994501       0.192721       0.630856       0.149508       0.588283     
  0.674288       0.374356       0.575865E-002  0.290149E-001  0.770276E-005  0.555214E-004  0.322113E-003  0.113658       0.585036       0.861247     
  0.813972       0.544605       0.435150E-010  0.667078       0.981749       0.983546       0.900799       0.983206       0.704390E-001  0.994924     
  0.139505       0.661226       0.126395       0.766834       0.708256       0.524681       0.670694E-001  0.213753       0.784991E-002  0.138960E-001
  0.621721E-004  0.354606       0.598614       0.860771       0.799934       0.520332       0.436363E-009  0.643475       0.979463       0.981525     
  0.895846       0.990019       0.157459E-001  0.992924       0.127213       0.467499       0.627002E-001  0.313282       0.565596       0.176421     
  0.270822E-005  0.494708E-004  0.925631E-016  0.936159E-013  0.106846E-017  0.392174E-002  0.450438       0.788887       0.735686       0.416885     
  0.514376E-012  0.500563       0.968106       0.971311       0.861817       0.968669       0.554032E-001  0.995897       0.187285       0.630658     
  0.110352       0.626066       0.672745       0.391221       0.586825E-002  0.300355E-001  0.103360E-004  0.602599E-004  0.151768E-005  0.114594     
  0.563282       0.845138       0.784721       0.495736       0.226423E-006  0.613531       0.976782       0.979140       0.894332       0.987111     
  0.797635E-003  0.988854       0.110981       0.186203       0.146734E-001  0.149672E-001  0.367145       0.159244E-001  0.192757E-021  0.192757E-021
  0.192781E-021  0.192748E-021  0.281958E-021  0.335720E-011  0.232338       0.643695       0.623748       0.268377       0.242352E-013  0.282904     
  0.941121       0.946922       0.796280       0.904751     
 
  0.114897       0.994999       0.314870       0.677068       0.176340       0.689301       0.712577       0.467343       0.286210E-001  0.108381     
  0.107078E-002  0.258111E-002  0.231174E-003  0.239836       0.624426       0.876816       0.831066       0.575948       0.253111E-008  0.700805     
  0.984114       0.985656       0.909221       0.987897       0.518549E-001  0.994077       0.186529       0.563557       0.119217       0.441429     
  0.625523       0.264153       0.264869E-003  0.217017E-002  0.506846E-009  0.320931E-007  0.534920E-006  0.283981E-001  0.533911       0.833397     
  0.791837       0.506545       0.425830E-010  0.618242       0.978265       0.980407       0.890180       0.976073       0.459293E-001  0.994586     
  0.135524       0.617402       0.992205E-001  0.668020       0.670901       0.426324       0.166698E-001  0.713587E-001  0.239289E-003  0.760285E-003
  0.220447E-005  0.187871       0.558510       0.840801       0.778071       0.482725       0.425367E-009  0.594266       0.975655       0.978106     
  0.885534       0.987242       0.775938E-002  0.992010       0.123035       0.367427       0.455586E-001  0.144584       0.498914       0.857430E-001
  0.115617E-009  0.575436E-008  0.192788E-021  0.192770E-021  0.192772E-021  0.404829E-004  0.379270       0.746611       0.707981       0.376779     
  0.496118E-012  0.442484       0.962346       0.966106       0.846939       0.951612       0.346937E-001  0.995525       0.184738       0.577771     
  0.866263E-001  0.496756       0.630478       0.291380       0.422736E-003  0.318740E-002  0.693439E-008  0.115510E-006  0.300191E-007  0.337126E-001
  0.515758       0.823543       0.763674       0.459140       0.220218E-006  0.562931       0.972620       0.975402       0.884263       0.982825     
  0.233953E-003  0.986318       0.107756       0.118375       0.917830E-002  0.160588E-002  0.287429       0.459981E-002  0.192732E-021  0.192732E-021
  0.192763E-021  0.192725E-021  0.192732E-021  0.193235E-018  0.173698       0.586532       0.588000       0.229937       0.227450E-013  0.226670     
  0.930843       0.937679       0.774751       0.872664     
 
  0.783321E-001  0.994636       0.309936       0.616580       0.144035       0.542408       0.663207       0.341352       0.284025E-002  0.158536E-001
  0.176861E-005  0.145421E-004  0.157227E-005  0.822906E-001  0.576478       0.852237       0.810708       0.539269       0.248434E-008  0.655025     
  0.981091       0.982932       0.899700       0.982512       0.313043E-001  0.993554       0.180706       0.487066       0.934792E-001  0.293841     
  0.574426       0.170898       0.187824E-005  0.338545E-004  0.120539E-015  0.242140E-012  0.624200E-019  0.362047E-002  0.478281       0.801268     
  0.768524       0.468398       0.415619E-010  0.566373       0.974285       0.976815       0.878736       0.966553       0.280575E-001  0.994189     
  0.131979       0.562695       0.767035E-001  0.536097       0.628619       0.318674       0.162895E-002  0.101484E-001  0.178477E-006  0.231404E-005
  0.605243E-007  0.637983E-001  0.511957       0.818194       0.755504       0.445405       0.413483E-009  0.542884       0.971354       0.974243     
  0.874632       0.982729       0.344995E-002  0.990677       0.119062       0.269973       0.325201E-001  0.454818E-001  0.427195       0.347596E-001
  0.110387E-019  0.198057E-014  0.192771E-021  0.192749E-021  0.192752E-021  0.290238E-007  0.307791       0.697623       0.679235       0.338139     
  0.476809E-012  0.384934       0.955906       0.960269       0.830809       0.929442       0.204030E-001  0.995061       0.182302       0.514653     
  0.672835E-001  0.354713       0.584703       0.198805       0.692085E-005  0.914598E-004  0.430311E-012  0.155477E-010  0.777670E-010  0.528961E-002
  0.463419       0.799394       0.742259       0.423434       0.213673E-006  0.511320       0.968009       0.971260       0.873761       0.976714     
  0.719525E-004  0.982660       0.104566       0.710279E-001  0.566002E-002  0.656273E-004  0.209391       0.114937E-002  0.192708E-021  0.192708E-021
  0.192745E-021  0.192703E-021  0.192710E-021  0.192750E-021  0.125577       0.526910       0.552252       0.195799       0.212591E-013  0.178416     
  0.919759       0.927794       0.752013       0.835865     
 
  0.500490E-001  0.994169       0.304951       0.540398       0.115705       0.374115       0.609080       0.223631       0.485829E-004  0.532480E-003
  0.842432E-011  0.986967E-009  0.850824E-017  0.141240E-001  0.520600       0.821660       0.789020       0.502096       0.243264E-008  0.605630     
  0.977611       0.979791       0.889241       0.974268       0.174517E-001  0.992877       0.175204       0.403552       0.720489E-001  0.163112     
  0.519438       0.984377E-001  0.125680E-008  0.518209E-007  0.192770E-021  0.192752E-021  0.192755E-021  0.151977E-003  0.418522       0.764500     
  0.744030       0.430481       0.404523E-010  0.512340       0.969770       0.972735       0.866314       0.953938       0.159637E-001  0.993692     
  0.128819       0.495354       0.584161E-001  0.381511       0.581464       0.214166       0.291775E-004  0.359946E-003  0.143615E-011  0.109161E-009
  0.390574E-009  0.108032E-001  0.458697       0.791584       0.732261       0.408704       0.400751E-009  0.490215       0.966530       0.969903     
  0.863094       0.975792       0.138381E-002  0.988633       0.115283       0.184163       0.228090E-001  0.798595E-002  0.348932       0.114251E-001
  0.192714E-021  0.192715E-021  0.192754E-021  0.192727E-021  0.192731E-021  0.163011E-012  0.239933       0.642685       0.649312       0.301344     
  0.456557E-012  0.329400       0.948734       0.953745       0.813044       0.901351       0.112537E-001  0.994459       0.179944       0.442016     
  0.517877E-001  0.218297       0.535521       0.122114       0.100793E-007  0.365688E-006  0.132212E-017  0.120110E-015  0.311881E-014  0.323466E-003
  0.407583       0.772212       0.720571       0.388998       0.206856E-006  0.459844       0.962966       0.966767       0.862765       0.968303     
  0.270046E-004  0.977414       0.101336       0.405741E-001  0.342372E-002  0.679993E-006  0.139375       0.277283E-003  0.192682E-021  0.192683E-021
  0.192726E-021  0.192681E-021  0.192689E-021  0.192733E-021  0.874997E-001  0.465840       0.516132       0.165564       0.197803E-013  0.137755     
  0.907794       0.917130       0.727868       0.794741     
 
  0.296882E-001  0.993684       0.299920       0.450751       0.913439E-001  0.211574       0.549624       0.127508       0.499881E-007  0.164253E-005
  0.233572E-021  0.528891E-017  0.192768E-021  0.798845E-003  0.457507       0.784930       0.765996       0.464730       0.237603E-008  0.553327     
  0.973709       0.976270       0.877708       0.962276       0.891526E-002  0.992129       0.169991       0.317874       0.545722E-001  0.694974E-001
  0.459294       0.492934E-001  0.320382E-014  0.198996E-011  0.192770E-021  0.192752E-021  0.192755E-021  0.124022E-005  0.355945       0.721618     
  0.718382       0.393138       0.392580E-010  0.457161       0.964762       0.968208       0.852907       0.937638       0.842488E-002  0.993192     
  0.125972       0.418903       0.438487E-001  0.232201       0.530673       0.128617       0.363862E-007  0.151217E-005  0.277904E-018  0.663810E-016
  0.298576E-011  0.696565E-003  0.401447       0.761096       0.708418       0.372963       0.387257E-009  0.437336       0.961225       0.965132     
  0.850899       0.966139       0.508802E-003  0.985646       0.111686       0.117117       0.157198E-001  0.616177E-003  0.266315       0.307298E-002
  0.192714E-021  0.192715E-021  0.192754E-021  0.192727E-021  0.192731E-021  0.967754E-021  0.179706       0.582638       0.618196       0.266762     
  0.435557E-012  0.277290       0.940898       0.946641       0.793528       0.866983       0.584371E-002  0.993772       0.177705       0.365844     
  0.395711E-001  0.111946       0.483468       0.679955E-001  0.217506E-011  0.236278E-009  0.192803E-021  0.192778E-021  0.351499E-019  0.606426E-005
  0.351469       0.741920       0.698803       0.356210       0.199848E-006  0.409806       0.957580       0.962022       0.851287       0.957546     
  0.140358E-004  0.970329       0.980452E-001  0.224836E-001  0.203309E-002  0.133551E-008  0.837101E-001  0.854649E-004  0.192682E-021  0.192683E-021
  0.192726E-021  0.192681E-021  0.192689E-021  0.192733E-021  0.595351E-001  0.405623       0.479751       0.139188       0.183303E-013  0.104497     
  0.895106       0.905842       0.702653       0.750722     
 
  0.161926E-001  0.992938       0.294696       0.354804       0.707989E-001  0.897363E-001  0.483752       0.619251E-001  0.722212E-012  0.957007E-010
  0.192780E-021  0.192766E-021  0.192768E-021  0.723835E-005  0.389462       0.740666       0.741470       0.427393       0.231416E-008  0.498850     
  0.969255       0.972239       0.864884       0.945801       0.414431E-002  0.991064       0.165030       0.236835       0.406037E-001  0.205737E-001
  0.394369       0.211743E-001  0.192734E-021  0.400534E-018  0.192770E-021  0.192752E-021  0.192755E-021  0.816361E-009  0.293342       0.673245     
  0.691447       0.356628       0.379744E-010  0.401896       0.959110       0.963085       0.838286       0.917545       0.411947E-002  0.992511     
  0.123311       0.339802       0.324547E-001  0.116562       0.477039       0.693432E-001  0.310106E-011  0.303478E-009  0.192783E-021  0.192767E-021
  0.386004E-013  0.122414E-004  0.343762       0.727357       0.683975       0.338443       0.373047E-009  0.385304       0.955350       0.959848     
  0.837982       0.953556       0.180874E-003  0.981064       0.108189       0.709265E-001  0.106400E-001  0.170657E-004  0.187603       0.724841E-003
  0.192714E-021  0.192715E-021  0.192754E-021  0.192727E-021  0.192731E-021  0.192756E-021  0.130033       0.520188       0.585960       0.234662     
  0.413917E-012  0.229810       0.932299       0.938887       0.772158       0.827463       0.289344E-002  0.992871       0.175576       0.293850     
  0.300774E-001  0.470879E-001  0.430061       0.352354E-001  0.872344E-016  0.102977E-013  0.192803E-021  0.192778E-021  0.192783E-021  0.346525E-007
  0.298496       0.709397       0.677071       0.325358       0.192700E-006  0.362318       0.951829       0.957032       0.839377       0.944976     
  0.952937E-005  0.960794       0.946676E-001  0.123966E-001  0.118823E-002  0.161908E-012  0.448338E-001  0.466309E-004  0.192682E-021  0.192683E-021
  0.192726E-021  0.192681E-021  0.192689E-021  0.192733E-021  0.401529E-001  0.347958       0.443511       0.116578       0.169295E-013  0.781211E-001
  0.881725       0.893906       0.676535       0.704844     
 
  0.804119E-002  0.991739       0.289211       0.259583       0.538065E-001  0.241143E-001  0.409553       0.244385E-001  0.192747E-021  0.141086E-016
  0.192780E-021  0.192766E-021  0.192768E-021  0.381532E-008  0.318044       0.687636       0.715191       0.390351       0.224675E-008  0.443148     
  0.964168       0.967616       0.850456       0.924002       0.174726E-002  0.989509       0.160262       0.166799       0.296548E-001  0.367034E-002
  0.325121       0.775627E-002  0.192734E-021  0.192734E-021  0.192770E-021  0.192752E-021  0.192755E-021  0.724844E-014  0.234501       0.620616     
  0.663104       0.321238       0.366001E-010  0.347746       0.952734       0.957285       0.822186       0.893472       0.187710E-002  0.991574     
  0.120815       0.263605       0.236987E-001  0.451961E-001  0.420001       0.333273E-001  0.847739E-017  0.154713E-014  0.192783E-021  0.192767E-021
  0.131509E-016  0.343624E-007  0.287817       0.690191       0.659006       0.305415       0.358222E-009  0.335169       0.948895       0.954136     
  0.824302       0.937799       0.677226E-004  0.974363       0.104736       0.415856E-001  0.707035E-002  0.116047E-006  0.120780       0.178644E-003
  0.192714E-021  0.192715E-021  0.192754E-021  0.192727E-021  0.192731E-021  0.192756E-021  0.912073E-001  0.457591       0.552741       0.205240     
  0.391807E-012  0.187696       0.922923       0.930392       0.749057       0.784187       0.139441E-002  0.991751       0.173545       0.231704     
  0.228036E-001  0.162890E-001  0.377586       0.176627E-001  0.598036E-021  0.858088E-019  0.192803E-021  0.192778E-021  0.192783E-021  0.511131E-010
  0.251622       0.675576       0.655531       0.296688       0.185485E-006  0.318313       0.945758       0.951817       0.827281       0.931111     
  0.764130E-005  0.948432       0.912108E-001  0.695834E-002  0.681207E-003  0.733551E-018  0.211966E-001  0.450079E-004  0.192682E-021  0.192683E-021
  0.192726E-021  0.192681E-021  0.192689E-021  0.192733E-021  0.270640E-001  0.293993       0.407780       0.973981E-001  0.155919E-013  0.576701E-001
  0.867765       0.881414       0.649665       0.658361     
 
  0.359983E-002  0.989754       0.283405       0.175345       0.400245E-001  0.321272E-002  0.327390       0.762684E-002  0.192747E-021  0.192748E-021
  0.192780E-021  0.192766E-021  0.192768E-021  0.919871E-014  0.248243       0.626956       0.686792       0.353873       0.217343E-008  0.387306     
  0.958342       0.962295       0.833891       0.895967       0.674107E-003  0.987222       0.155618       0.111468       0.212339E-001  0.327693E-003
  0.252964       0.244181E-002  0.192734E-021  0.192734E-021  0.192770E-021  0.192752E-021  0.192755E-021  0.557834E-021  0.181736       0.564224     
  0.633247       0.287247       0.351375E-010  0.295862       0.945570       0.950868       0.804431       0.864753       0.813509E-003  0.990281     
  0.118494       0.195540       0.170805E-001  0.123912E-001  0.359623       0.142184E-001  0.192751E-021  0.145560E-020  0.192783E-021  0.192767E-021
  0.192769E-021  0.779236E-011  0.235499       0.649602       0.633573       0.274112       0.342893E-009  0.287893       0.941852       0.947953     
  0.809758       0.918879       0.291320E-004  0.965030       0.101293       0.240566E-001  0.461340E-002  0.188680E-009  0.703569E-001  0.638358E-004
  0.192714E-021  0.192715E-021  0.192754E-021  0.192727E-021  0.192731E-021  0.192756E-021  0.624505E-001  0.397069       0.518622       0.178580     
  0.369491E-012  0.151176       0.912813       0.921193       0.724523       0.738597       0.678320E-003  0.990440       0.171620       0.181540     
  0.172971E-001  0.479577E-002  0.328297       0.888727E-002  0.192782E-021  0.192782E-021  0.192803E-021  0.192778E-021  0.192783E-021  0.353373E-013
  0.212233       0.642174       0.634517       0.270396       0.178298E-006  0.278461       0.939442       0.946412       0.815222       0.916633     
  0.620985E-005  0.933127       0.877265E-001  0.406820E-002  0.379712E-003  0.192671E-021  0.894689E-002  0.450079E-004  0.192682E-021  0.192683E-021
  0.192726E-021  0.192681E-021  0.192689E-021  0.192733E-021  0.183419E-001  0.244919       0.372994       0.812796E-001  0.143292E-013  0.421368E-001
  0.853366       0.868513       0.622537       0.612783     
 
  0.144693E-002  0.986520       0.277261       0.110395       0.290685E-001  0.158522E-003  0.241208       0.192358E-002  0.192747E-021  0.192748E-021
  0.192780E-021  0.192766E-021  0.192768E-021  0.192781E-021  0.185527       0.560260       0.655910       0.318238       0.209397E-008  0.332457     
  0.951670       0.956232       0.814831       0.861163       0.246306E-003  0.983489       0.150959       0.697918E-001  0.148543E-001  0.909414E-005
  0.179649       0.639175E-003  0.192734E-021  0.192734E-021  0.192770E-021  0.192752E-021  0.192755E-021  0.192770E-021  0.134546       0.502835     
  0.601424       0.254892       0.335884E-010  0.247249       0.937530       0.943777       0.784285       0.829744       0.348454E-003  0.988436     
  0.116262       0.137966       0.121526E-001  0.205749E-002  0.295925       0.526970E-002  0.192751E-021  0.192752E-021  0.192783E-021  0.192767E-021
  0.192769E-021  0.156775E-015  0.187370       0.605347       0.607604       0.244705       0.327168E-009  0.244135       0.934209       0.941280     
  0.794229       0.896398       0.155567E-004  0.952512       0.978116E-001  0.139462E-001  0.295099E-002  0.168716E-013  0.366634E-001  0.367026E-004
  0.192714E-021  0.192715E-021  0.192754E-021  0.192727E-021  0.192731E-021  0.192756E-021  0.422131E-001  0.340022       0.483650       0.154584     
  0.347100E-012  0.120061       0.901939       0.911249       0.698675       0.691513       0.346724E-003  0.988952       0.169791       0.141602     
  0.131022E-001  0.120622E-002  0.282617       0.451829E-002  0.192782E-021  0.192782E-021  0.192803E-021  0.192778E-021  0.192783E-021  0.367685E-016
  0.178933       0.609948       0.613931       0.246185       0.171120E-006  0.242456       0.932860       0.940811       0.803137       0.902128     
  0.517748E-005  0.915517       0.843410E-001  0.252938E-002  0.205535E-003  0.192671E-021  0.352746E-002  0.450079E-004  0.192682E-021  0.192683E-021
  0.192726E-021  0.192681E-021  0.192689E-021  0.192733E-021  0.126423E-001  0.201721       0.340087       0.680068E-001  0.131654E-013  0.306855E-001
  0.838881       0.855503       0.596028       0.569788     
 
  0.530823E-003  0.981584       0.270677       0.664349E-001  0.205524E-001  0.218435E-005  0.161106       0.438842E-003  0.192747E-021  0.192748E-021
  0.192780E-021  0.192766E-021  0.192768E-021  0.192781E-021  0.133339       0.490868       0.622364       0.283737       0.200834E-008  0.279702     
  0.944048       0.949442       0.793118       0.820914       0.904387E-004  0.977280       0.146159       0.401532E-001  0.101101E-001  0.386295E-007
  0.112085       0.145535E-003  0.192734E-021  0.192734E-021  0.192770E-021  0.192752E-021  0.192755E-021  0.192770E-021  0.935095E-001  0.436094     
  0.567057       0.224363       0.319554E-010  0.202674       0.928511       0.935759       0.761124       0.787542       0.156500E-003  0.985803     
  0.114023       0.927088E-001  0.853809E-002  0.174660E-003  0.231649       0.176329E-002  0.192751E-021  0.192752E-021  0.192783E-021  0.192767E-021
  0.192769E-021  0.192783E-021  0.145245       0.557745       0.580962       0.217331       0.311160E-009  0.204406       0.925957       0.934107     
  0.777698       0.870241       0.996340E-005  0.936010       0.942223E-001  0.822426E-002  0.184025E-002  0.293696E-019  0.167181E-001  0.346190E-004
  0.192714E-021  0.192715E-021  0.192754E-021  0.192727E-021  0.192731E-021  0.192756E-021  0.283034E-001  0.286623       0.447844       0.133036     
  0.324643E-012  0.938760E-001  0.890199       0.900452       0.671347       0.643384       0.199326E-003  0.987357       0.168079       0.111393     
  0.997233E-002  0.272575E-003  0.242285       0.237905E-002  0.192782E-021  0.192782E-021  0.192803E-021  0.192778E-021  0.192783E-021  0.640396E-019
  0.151669       0.580273       0.594140       0.224362       0.164135E-006  0.210779       0.926180       0.935198       0.791337       0.887847     
  0.410884E-005  0.896465       0.811504E-001  0.170863E-002  0.108167E-003  0.192671E-021  0.134893E-002  0.450079E-004  0.192682E-021  0.192683E-021
  0.192726E-021  0.192681E-021  0.192689E-021  0.192733E-021  0.886909E-002  0.165371       0.309949       0.572835E-001  0.121185E-013  0.224541E-001
  0.824680       0.842744       0.570968       0.530942     
 
  0.185500E-003  0.974448       0.263543       0.382920E-001  0.141020E-001  0.462976E-008  0.959580E-001  0.106629E-003  0.192747E-021  0.192748E-021
  0.192780E-021  0.192766E-021  0.192768E-021  0.192781E-021  0.918647E-001  0.420695       0.585976       0.250644       0.191660E-008  0.230072     
  0.935356       0.941694       0.768716       0.776775       0.363657E-004  0.967343       0.141127       0.219760E-001  0.666579E-002  0.133825E-010
  0.593528E-001  0.400589E-004  0.192734E-021  0.192734E-021  0.192770E-021  0.192752E-021  0.192755E-021  0.192770E-021  0.615372E-001  0.367153     
  0.529699       0.195815       0.302469E-010  0.162713       0.918448       0.926725       0.734812       0.739047       0.776374E-004  0.982236     
  0.111739       0.603031E-001  0.590369E-002  0.671201E-005  0.172061       0.606698E-003  0.192751E-021  0.192752E-021  0.192783E-021  0.192767E-021
  0.192769E-021  0.192783E-021  0.110705       0.508766       0.553584       0.191838       0.294756E-009  0.168746       0.916977       0.926297     
  0.760152       0.840975       0.756807E-005  0.915264       0.905550E-001  0.500259E-002  0.112248E-002  0.192703E-021  0.669271E-002  0.346190E-004
  0.192714E-021  0.192715E-021  0.192754E-021  0.192727E-021  0.192731E-021  0.192756E-021  0.190302E-001  0.237849       0.412107       0.114132     
  0.302692E-012  0.725706E-001  0.877828       0.889032       0.643130       0.595855       0.132099E-003  0.985647       0.166428       0.884362E-001
  0.758959E-002  0.549944E-004  0.206494       0.128085E-002  0.192782E-021  0.192782E-021  0.192803E-021  0.192778E-021  0.192783E-021  0.192807E-021
  0.129082       0.552664       0.574739       0.204330       0.157246E-006  0.182534       0.919313       0.929482       0.779693       0.873364     
  0.306691E-005  0.875128       0.779800E-001  0.123615E-002  0.535709E-004  0.192671E-021  0.464239E-003  0.450079E-004  0.192682E-021  0.192683E-021
  0.192726E-021  0.192681E-021  0.192689E-021  0.192733E-021  0.617753E-002  0.133197       0.280963       0.481315E-001  0.111291E-013  0.162428E-001
  0.810083       0.829557       0.546021       0.493934     
 
  0.660951E-004  0.961825       0.255228       0.204011E-001  0.927067E-002  0.296558E-012  0.456130E-001  0.329580E-004  0.192747E-021  0.192748E-021
  0.192780E-021  0.192766E-021  0.192768E-021  0.192781E-021  0.583980E-001  0.345151       0.544724       0.219135       0.181832E-008  0.184552     
  0.925409       0.932705       0.739706       0.723805       0.176644E-004  0.951919       0.135738       0.117069E-001  0.422997E-002  0.510620E-016
  0.256680E-001  0.210770E-004  0.192734E-021  0.192734E-021  0.192770E-021  0.192752E-021  0.192755E-021  0.192770E-021  0.386692E-001  0.299020     
  0.489051       0.169375       0.284683E-010  0.127737       0.907218       0.916508       0.705052       0.685102       0.439312E-004  0.977678     
  0.109432       0.387345E-001  0.402726E-002  0.106936E-006  0.121447       0.239968E-003  0.192751E-021  0.192752E-021  0.192783E-021  0.192767E-021
  0.192769E-021  0.192783E-021  0.838465E-001  0.461217       0.525960       0.168496       0.278152E-009  0.137627       0.907325       0.917897     
  0.741833       0.810159       0.540472E-005  0.890228       0.868181E-001  0.318864E-002  0.665964E-003  0.192703E-021  0.238491E-002  0.346190E-004
  0.192714E-021  0.192715E-021  0.192754E-021  0.192727E-021  0.192731E-021  0.192756E-021  0.128707E-001  0.194070       0.376917       0.976547E-001
  0.281407E-012  0.555085E-001  0.864880       0.877042       0.614548       0.550102       0.102272E-003  0.984000       0.164961       0.723286E-001
  0.590856E-002  0.119590E-004  0.177937       0.743665E-003  0.192782E-021  0.192782E-021  0.192803E-021  0.192778E-021  0.192783E-021  0.192807E-021
  0.112022       0.529106       0.557331       0.187446       0.151029E-006  0.159512       0.912886       0.924149       0.769228       0.860175     
  0.208343E-005  0.854402       0.752100E-001  0.981909E-003  0.275756E-004  0.192671E-021  0.169808E-003  0.450079E-004  0.192682E-021  0.192683E-021
  0.192726E-021  0.192681E-021  0.192689E-021  0.192733E-021  0.450825E-002  0.108507       0.256789       0.412895E-001  0.103154E-013  0.121424E-001
  0.797114       0.817683       0.524403       0.463044     
 
  0.265063E-004  0.932381       0.242187       0.989585E-002  0.569554E-002  0.113878E-019  0.150475E-001  0.183372E-004  0.191893E-021  0.191894E-021
  0.192101E-021  0.191992E-021  0.192005E-021  0.192056E-021  0.333110E-001  0.264158       0.494693       0.188705       0.170663E-008  0.143437     
  0.910550       0.918610       0.701081       0.656092       0.968555E-005  0.923940       0.128612       0.619199E-002  0.254780E-002  0.192039E-021
  0.843781E-002  0.205271E-004  0.192027E-021  0.192028E-021  0.192213E-021  0.192115E-021  0.192127E-021  0.192175E-021  0.230533E-001  0.232779     
  0.443697       0.144710       0.265464E-010  0.976004E-001  0.891929       0.902123       0.669147       0.624109       0.281099E-004  0.968074     
  0.106272       0.250614E-001  0.271246E-002  0.795544E-009  0.817090E-001  0.116010E-003  0.192115E-021  0.192115E-021  0.192276E-021  0.192187E-021
  0.192198E-021  0.192244E-021  0.635682E-001  0.415915       0.497242       0.147135       0.260998E-009  0.110893       0.894698       0.906589     
  0.720971       0.776224       0.386875E-005  0.858538       0.824882E-001  0.215160E-002  0.384587E-003  0.192124E-021  0.793349E-003  0.345063E-004
  0.192117E-021  0.192118E-021  0.192282E-021  0.192185E-021  0.192198E-021  0.192253E-021  0.883114E-002  0.155632       0.342500       0.834031E-001
  0.260660E-012  0.421521E-001  0.849497       0.862529       0.584873       0.505923       0.833266E-004  0.980273       0.162866       0.594672E-001
  0.455883E-002  0.243691E-005  0.152682       0.439332E-003  0.192468E-021  0.192468E-021  0.192552E-021  0.192489E-021  0.192499E-021  0.192542E-021
  0.975934E-001  0.506468       0.539178       0.171236       0.144527E-006  0.138363       0.904924       0.917249       0.757621       0.845885     
  0.159384E-005  0.831193       0.722223E-001  0.841036E-003  0.142348E-004  0.192229E-021  0.642487E-004  0.448959E-004  0.192226E-021  0.192227E-021
  0.192366E-021  0.192269E-021  0.192283E-021  0.192348E-021  0.335918E-002  0.884608E-001  0.235003       0.356816E-001  0.957933E-014  0.917846E-002
  0.783311       0.804809       0.503532       0.434776     
 
  0.111516E-004  0.881457       0.225471       0.454887E-002  0.318606E-002  0.190873E-021  0.298561E-002  0.177482E-004  0.190818E-021  0.190820E-021
  0.191245E-021  0.191015E-021  0.191042E-021  0.191145E-021  0.169539E-001  0.185637       0.437041       0.160205       0.158595E-008  0.108133     
  0.892959       0.901466       0.654208       0.578204       0.543694E-005  0.884410       0.120741       0.332136E-002  0.144017E-002  0.191292E-021
  0.197651E-002  0.204409E-004  0.191258E-021  0.191260E-021  0.191600E-021  0.191416E-021  0.191439E-021  0.191527E-021  0.129383E-001  0.171437     
  0.395365       0.122375       0.245749E-010  0.726866E-001  0.875081       0.886047       0.629349       0.560084       0.199230E-004  0.956591     
  0.102929       0.165882E-001  0.180021E-002  0.328998E-011  0.527021E-001  0.655108E-004  0.191336E-021  0.191338E-021  0.191656E-021  0.191477E-021
  0.191499E-021  0.191584E-021  0.484664E-001  0.373998       0.468586       0.127931       0.243984E-009  0.883888E-001  0.881070       0.894353     
  0.699536       0.741422       0.252367E-005  0.821966       0.780546E-001  0.151388E-002  0.208887E-003  0.191514E-021  0.233492E-003  0.343882E-004
  0.191489E-021  0.191490E-021  0.191782E-021  0.191611E-021  0.191634E-021  0.191725E-021  0.595450E-002  0.121414       0.308425       0.707379E-001
  0.240289E-012  0.314452E-001  0.833280       0.847159       0.554606       0.463187       0.716593E-004  0.976370       0.160839       0.500594E-001
  0.356390E-002  0.561908E-006  0.132804       0.282266E-003  0.192104E-021  0.192105E-021  0.192262E-021  0.192154E-021  0.192169E-021  0.192234E-021
  0.863764E-001  0.487086       0.522447       0.157094       0.138419E-006  0.120700       0.897017       0.910223       0.746772       0.832822     
  0.121285E-005  0.809552       0.696008E-001  0.749061E-003  0.763971E-005  0.191802E-021  0.264682E-004  0.447883E-004  0.191786E-021  0.191788E-021
  0.192016E-021  0.191871E-021  0.191891E-021  0.191978E-021  0.255856E-002  0.731417E-001  0.216731       0.313158E-001  0.896085E-014  0.712402E-002
  0.770937       0.793208       0.485369       0.410967     
 
  0.416487E-005  0.802365       0.204408       0.208479E-002  0.157769E-002  0.189567E-021  0.324814E-003  0.176170E-004  0.189468E-021  0.189472E-021
  0.190167E-021  0.189784E-021  0.189829E-021  0.189999E-021  0.765142E-002  0.117108       0.373415       0.133806       0.145626E-008  0.788792E-001
  0.872058       0.880568       0.599829       0.495779       0.277462E-005  0.829549       0.111575       0.180778E-002  0.751160E-003  0.190164E-021
  0.340657E-003  0.203109E-004  0.190093E-021  0.190097E-021  0.190668E-021  0.190357E-021  0.190396E-021  0.190542E-021  0.690792E-002  0.118358     
  0.344836       0.102236       0.225379E-010  0.526606E-001  0.855307       0.866859       0.585412       0.494693       0.155523E-004  0.942990     
  0.993714E-001  0.112254E-001  0.116980E-002  0.850885E-014  0.325051E-001  0.419199E-004  0.190385E-021  0.190388E-021  0.190897E-021  0.190609E-021
  0.190644E-021  0.190778E-021  0.369858E-001  0.335040       0.439971       0.110679       0.227151E-009  0.696164E-001  0.866337       0.881049     
  0.677503       0.706044       0.146978E-005  0.781645       0.735661E-001  0.113832E-002  0.112265E-003  0.190630E-021  0.634789E-004  0.342168E-004
  0.190575E-021  0.190578E-021  0.191050E-021  0.190777E-021  0.190813E-021  0.190952E-021  0.406421E-002  0.937295E-001  0.277309       0.603803E-001
  0.221778E-012  0.236341E-001  0.816557       0.831153       0.525495       0.424314       0.633917E-004  0.972362       0.158918       0.432877E-001
  0.286270E-002  0.158621E-006  0.117846       0.199670E-003  0.191686E-021  0.191688E-021  0.191928E-021  0.191765E-021  0.191788E-021  0.191881E-021
  0.779699E-001  0.471462       0.507882       0.145461       0.133040E-006  0.106753       0.889558       0.903534       0.737121       0.821470     
  0.883732E-006  0.790231       0.673131E-001  0.676648E-003  0.447561E-005  0.191245E-021  0.126532E-004  0.446480E-004  0.191211E-021  0.191213E-021
  0.191557E-021  0.191350E-021  0.191378E-021  0.191491E-021  0.201093E-002  0.622038E-001  0.202341       0.280911E-001  0.847101E-014  0.576261E-002
  0.760092       0.782925       0.470315       0.391893     
 
  0.123307E-005  0.701709       0.180234       0.101800E-002  0.684523E-003  0.187933E-021  0.236700E-004  0.174528E-004  0.187778E-021  0.187783E-021
  0.188816E-021  0.188238E-021  0.188307E-021  0.188564E-021  0.330646E-002  0.661646E-001  0.308288       0.109781       0.132006E-008  0.553894E-001
  0.847611       0.855820       0.541290       0.417294       0.112642E-005  0.760529       0.101644       0.107810E-002  0.354426E-003  0.188988E-021
  0.436680E-004  0.201756E-004  0.188881E-021  0.188886E-021  0.189694E-021  0.189247E-021  0.189305E-021  0.189518E-021  0.360913E-002  0.762109E-001
  0.294252       0.843919E-001  0.204907E-010  0.371069E-001  0.833889       0.845824       0.539264       0.431313       0.127394E-004  0.927069     
  0.955950E-001  0.770799E-002  0.744592E-003  0.939965E-017  0.191233E-001  0.268948E-004  0.189229E-021  0.189234E-021  0.189975E-021  0.189553E-021
  0.189605E-021  0.189798E-021  0.281593E-001  0.298231       0.411775       0.954058E-001  0.210760E-009  0.543149E-001  0.850546       0.866627     
  0.655036       0.670494       0.794299E-006  0.737822       0.691139E-001  0.922201E-003  0.581457E-004  0.189744E-021  0.165020E-004  0.340455E-004
  0.189662E-021  0.189665E-021  0.190316E-021  0.189937E-021  0.189988E-021  0.190182E-021  0.280235E-002  0.708854E-001  0.248192       0.515661E-001
  0.204482E-012  0.177035E-001  0.799794       0.815035       0.497156       0.388059       0.572467E-004  0.968120       0.157015       0.379696E-001
  0.233458E-002  0.497574E-007  0.105789       0.148153E-003  0.191212E-021  0.191214E-021  0.191548E-021  0.191320E-021  0.191352E-021  0.191481E-021
  0.711617E-001  0.458011       0.494601       0.135400       0.128100E-006  0.951434E-001  0.882263       0.896950       0.728126       0.811104     
  0.669374E-006  0.769822       0.650178E-001  0.597269E-003  0.247947E-005  0.190761E-021  0.569713E-005  0.445262E-004  0.190712E-021  0.190715E-021
  0.191157E-021  0.190897E-021  0.190932E-021  0.191070E-021  0.152351E-002  0.521074E-001  0.187885       0.250163E-001  0.797904E-014  0.458506E-002
  0.748959       0.772337       0.454874       0.372665     
 
  0.200001E-006  0.586315       0.153977       0.645454E-003  0.253853E-003  0.185901E-021  0.106226E-005  0.172488E-004  0.185677E-021  0.185685E-021
  0.187133E-021  0.186316E-021  0.186414E-021  0.186777E-021  0.145735E-002  0.330213E-001  0.245109       0.882983E-001  0.117981E-008  0.372140E-001
  0.819405       0.827081       0.480951       0.346158       0.277120E-006  0.676704       0.909810E-001  0.767136E-003  0.147666E-003  0.187767E-021
  0.358131E-005  0.200356E-004  0.187624E-021  0.187630E-021  0.188672E-021  0.188091E-021  0.188169E-021  0.188456E-021  0.187243E-002  0.451544E-001
  0.244963       0.687168E-001  0.184482E-010  0.253496E-001  0.810767       0.823046       0.491745       0.371374       0.109504E-004  0.908435     
  0.915624E-001  0.532970E-002  0.461389E-003  0.545916E-020  0.106511E-001  0.211984E-004  0.187836E-021  0.187842E-021  0.188861E-021  0.188278E-021
  0.188349E-021  0.188614E-021  0.212799E-001  0.263516       0.383988       0.818775E-001  0.194775E-009  0.419125E-001  0.833554       0.850928     
  0.632054       0.634584       0.504282E-006  0.689142       0.645734E-001  0.807783E-003  0.279546E-004  0.188866E-021  0.372307E-005  0.338764E-004
  0.188757E-021  0.188762E-021  0.189581E-021  0.189102E-021  0.189168E-021  0.189419E-021  0.190597E-002  0.517163E-001  0.219983       0.437351E-001
  0.187681E-012  0.130352E-001  0.782507       0.798299       0.468573       0.353052       0.534975E-004  0.963704       0.155179       0.339445E-001
  0.195316E-002  0.184107E-007  0.964556E-001  0.115717E-003  0.190684E-021  0.190686E-021  0.191122E-021  0.190816E-021  0.190859E-021  0.191036E-021
  0.658867E-001  0.446841       0.483120       0.127157       0.123825E-006  0.859764E-001  0.875455       0.890745       0.720109       0.802006     
  0.561346E-006  0.758693       0.637565E-001  0.556844E-003  0.178872E-005  0.190365E-021  0.380281E-005  0.444269E-004  0.190305E-021  0.190308E-021
  0.190827E-021  0.190526E-021  0.190566E-021  0.190726E-021  0.131783E-002  0.476307E-001  0.180681       0.234968E-001  0.772097E-014  0.405637E-002
  0.742635       0.766298       0.446845       0.363081     
 
  0.120242E-007  0.458605       0.125815       0.543845E-003  0.753896E-004  0.183423E-021  0.265153E-007  0.170004E-004  0.183117E-021  0.183128E-021
  0.185078E-021  0.183970E-021  0.184103E-021  0.184595E-021  0.675306E-003  0.138118E-001  0.185474       0.691906E-001  0.103535E-008  0.236343E-001
  0.786691       0.793643       0.419073       0.281114       0.623089E-007  0.578478       0.791779E-001  0.680926E-003  0.528577E-004  0.186018E-021
  0.222017E-006  0.198353E-004  0.185822E-021  0.185829E-021  0.187202E-021  0.186432E-021  0.186536E-021  0.186927E-021  0.971225E-003  0.240919E-001
  0.198050       0.550004E-001  0.163971E-010  0.166960E-001  0.784058       0.796589       0.442657       0.314859       0.949632E-005  0.887129     
  0.872920E-001  0.368670E-002  0.276908E-003  0.186399E-021  0.565272E-002  0.193521E-004  0.186191E-021  0.186198E-021  0.187543E-021  0.186769E-021
  0.186864E-021  0.187216E-021  0.159114E-001  0.231380       0.356718       0.699265E-001  0.179266E-009  0.319678E-001  0.815392       0.833964     
  0.608598       0.598766       0.255703E-006  0.638871       0.600244E-001  0.702104E-003  0.131761E-004  0.187671E-021  0.865594E-006  0.336462E-004
  0.187525E-021  0.187531E-021  0.188577E-021  0.187967E-021  0.188052E-021  0.188376E-021  0.126882E-002  0.375658E-001  0.194908       0.372739E-001
  0.172421E-012  0.967134E-002  0.764782       0.780935       0.441470       0.321597       0.501169E-004  0.958973       0.153267       0.303188E-001
  0.161720E-002  0.675804E-008  0.877840E-001  0.909660E-004  0.190109E-021  0.190112E-021  0.190655E-021  0.190245E-021  0.190305E-021  0.190555E-021
  0.609628E-001  0.435770       0.471260       0.118985       0.119401E-006  0.771792E-001  0.868194       0.884103       0.711818       0.792853     
  0.465358E-006  0.747442       0.624874E-001  0.517681E-003  0.127411E-005  0.189959E-021  0.251848E-005  0.443253E-004  0.189887E-021  0.189890E-021
  0.190488E-021  0.190146E-021  0.190192E-021  0.190372E-021  0.113560E-002  0.434651E-001  0.173577       0.220246E-001  0.746280E-014  0.357475E-002
  0.736158       0.760113       0.438769       0.353564     
 
 )
