                     --        WCP dust-like  WCP dust-like WCP dust-like
   wvl (um)      wvn (cm-1)        real         image (+)     image (-)
      0.2           50000          1.53           0.07          -0.07
     0.207       48309.1787        1.53           0.065        -0.065
    0.2143       46663.5558        1.53          0.0599        -0.0599
    0.2218       45085.6628        1.53          0.0543        -0.0543
    0.2296        43554.007        1.53          0.0479        -0.0479
    0.2377       42069.8359        1.53          0.0409        -0.0409
    0.2461       40633.8887        1.53          0.0335        -0.0335
    0.2547       39261.8767        1.53           0.026        -0.026
    0.2637       37921.8809        1.53          0.0195        -0.0195
    0.2729       36643.4591        1.53          0.0145        -0.0145
    0.2825       35398.2301        1.53          0.0111        -0.0111
    0.2924       34199.7264        1.53         8.91E-03      -8.91E-03
    0.3027       33036.0093        1.53         7.81E-03      -7.81E-03
    0.3134       31908.1047        1.53         7.51E-03      -7.51E-03
    0.3244       30826.1406        1.53         7.66E-03      -7.66E-03
    0.3358       29779.6307        1.53         7.97E-03      -7.97E-03
    0.3476       28768.6997        1.53         8.18E-03      -8.18E-03
    0.3598       27793.2185        1.53         8.23E-03      -8.23E-03
    0.3724       26852.8464        1.53         8.19E-03      -8.19E-03
    0.3855       25940.3372        1.53         8.10E-03      -8.10E-03
    0.3991       25056.3768        1.53         8.01E-03      -8.01E-03
    0.4131       24207.2137        1.53         7.95E-03      -7.95E-03
    0.4276       23386.3424        1.53         7.93E-03      -7.93E-03
    0.4426       22593.7641        1.53         7.94E-03      -7.94E-03
    0.4582       21824.5308        1.53         7.96E-03      -7.96E-03
    0.4743       21083.7023        1.53         7.99E-03      -7.99E-03
    0.4909       20370.7476        1.53         8.00E-03      -8.00E-03
    0.5082       19677.2924        1.53         8.00E-03      -8.00E-03
    0.5261       19007.7932        1.53         8.00E-03      -8.00E-03
    0.5445       18365.4729        1.53         8.00E-03      -8.00E-03
    0.5637       17739.9326        1.53         8.00E-03      -8.00E-03
    0.5835       17137.9606        1.53         8.00E-03      -8.00E-03
     0.604       16556.2914        1.53         8.00E-03      -8.00E-03
    0.6252       15994.8816        1.53         8.00E-03      -8.00E-03
    0.6472       15451.1743        1.53         8.00E-03      -8.00E-03
    0.6699       14927.6011        1.53         8.00E-03      -8.00E-03
    0.6935       14419.6107        1.53         8.00E-03      -8.00E-03
    0.7178       13931.4572        1.529        8.00E-03      -8.00E-03
    0.7431        13457.139        1.527        8.00E-03      -8.00E-03
    0.7692        13000.52         1.525        8.00E-03      -8.00E-03
    0.7962       12559.6584        1.522        8.00E-03      -8.00E-03
    0.8242       12132.9774        1.521        8.00E-03      -8.00E-03
    0.8532       11720.5813        1.52         8.00E-03      -8.00E-03
    0.8831       11323.7459        1.52         8.00E-03      -8.00E-03
    0.9142       10938.5255        1.522        8.00E-03      -8.00E-03
    0.9463       10567.4733        1.523        8.00E-03      -8.00E-03
    0.9796       10208.2483        1.524        8.00E-03      -8.00E-03
     1.014        9861.9329        1.524        8.00E-03      -8.00E-03
     1.05         9523.8095        1.521        8.00E-03      -8.00E-03
     1.087        9199.632         1.516        8.00E-03      -8.00E-03
     1.125        8888.8889        1.508        8.00E-03      -8.00E-03
     1.164        8591.0653        1.499        8.01E-03      -8.01E-03
     1.205        8298.7552        1.487        8.01E-03      -8.01E-03
     1.247        8019.2462        1.475        8.00E-03      -8.00E-03
     1.291        7745.9334        1.462        8.00E-03      -8.00E-03
     1.337        7479.4316        1.45         7.99E-03      -7.99E-03
     1.384        7225.4335        1.437        7.99E-03      -7.99E-03
     1.432        6983.2402        1.425        7.98E-03      -7.98E-03
     1.483        6743.0883        1.412        7.99E-03      -7.99E-03
     1.535        6514.658          1.4         8.00E-03      -8.00E-03
     1.589        6293.2662        1.388        8.02E-03      -8.02E-03
     1.644        6082.7251        1.375        8.05E-03      -8.05E-03
     1.702        5875.4407        1.361        8.06E-03      -8.06E-03
     1.762        5675.3689        1.343        8.04E-03      -8.04E-03
     1.824        5482.4561        1.321        7.97E-03      -7.97E-03
     1.888        5296.6102        1.297        7.89E-03      -7.89E-03
     1.954        5117.7073        1.273        7.90E-03      -7.90E-03
     2.023        4943.1537        1.255        8.09E-03      -8.09E-03
     2.094        4775.5492        1.242        8.48E-03      -8.48E-03
     2.168        4612.5461        1.232        8.86E-03      -8.86E-03
     2.244        4456.328         1.221        9.01E-03      -9.01E-03
     2.323        4304.7783        1.206        8.77E-03      -8.77E-03
     2.405        4158.0042        1.19         8.55E-03      -8.55E-03
     2.489        4017.6778        1.181        8.89E-03      -8.89E-03
     2.576        3881.9876        1.18          0.0103        -0.0103
     2.667        3749.5313        1.182         0.0123        -0.0123
     2.761        3621.8761        1.173         0.0138        -0.0138
     2.858        3498.9503        1.159         0.0139        -0.0139
     2.958        3380.6626        1.155         0.0127        -0.0127
     3.062        3265.8393        1.175         0.0108        -0.0108
     3.17         3154.5741        1.211        9.84E-03      -9.84E-03
     3.281        3047.8513        1.239         0.0115        -0.0115
     3.396        2944.6408        1.261          0.013        -0.013
     3.516        2844.1411        1.282         0.0108        -0.0108
     3.639        2748.0077        1.28          0.0104        -0.0104
     3.767        2654.6323        1.269         0.0111        -0.0111
      3.9         2564.1026        1.262         0.0117        -0.0117
     4.037        2477.0869        1.26          0.0121        -0.0121
     4.179        2392.917         1.26          0.0127        -0.0127
     4.325        2312.1387        1.26          0.0133        -0.0133
     4.477        2233.6386        1.26          0.0139        -0.0139
     4.635        2157.4973        1.258         0.0145        -0.0145
     4.798        2084.2018        1.255         0.0152        -0.0152
     4.966        2013.6931        1.251         0.0159        -0.0159
     5.141        1945.1469        1.246         0.0166        -0.0166
     5.321        1879.346         1.238         0.0181        -0.0181
     5.508        1815.541         1.219         0.0212        -0.0212
     5.702        1753.7706        1.188         0.0271        -0.0271
     5.902        1694.3409        1.159         0.0343        -0.0343
     6.11         1636.6612        1.146         0.0385        -0.0385
     6.325        1581.0277        1.127         0.0396        -0.0396
     6.547        1527.4171        1.142         0.0432        -0.0432
     6.777        1475.5792        1.244         0.0511        -0.0511
     7.015        1425.5167        1.36          0.0575        -0.0575
     7.262        1377.0311        1.397         0.0524        -0.0524
     7.517        1330.3179        1.321         0.0394        -0.0394
     7.781        1285.1819        1.198         0.0356        -0.0356
     8.054        1241.6191        1.113         0.0549        -0.0549
     8.337        1199.4722         1.2          0.0847        -0.0847
     8.63         1158.7486        1.36          0.0943        -0.0943
     8.934        1119.3195        1.655          0.131        -0.131
     9.248        1081.3149        1.719          0.152        -0.152
     9.573        1044.6046        1.732          0.163        -0.163
     9.909        1009.1836        1.748          0.163        -0.163
     10.26        974.6589         1.701          0.147        -0.147
     10.62        941.6196         1.617          0.118        -0.118
     10.99        909.9181         1.62           0.105        -0.105
     11.38        878.7346          1.6           0.101        -0.101
     11.78        848.8964         1.568         0.0951        -0.0951
     12.19        820.3445         1.537         0.0889        -0.0889
     12.62         792.393         1.498         0.0925        -0.0925
     13.06        765.6968         1.468           0.1          -0.1
     13.52         739.645         1.481         0.0914        -0.0914
      14          714.2857         1.52          0.0849        -0.0849
     14.49        690.1311         1.559         0.0947        -0.0947
      15          666.6667         1.572           0.1          -0.1
     15.52        644.3299         1.574           0.1          -0.1
     16.07        622.2775         1.588          0.101        -0.101
     16.64        600.9615         1.609         0.0991        -0.0991
     17.22        580.7201         1.63          0.0999        -0.0999
     17.83        560.8525         1.639          0.112        -0.112
     18.45        542.0054         1.64           0.119        -0.119
     19.1         523.5602         1.648          0.147        -0.147
     19.77        505.8169         1.67           0.201        -0.201
     20.47        488.5198         1.704          0.252        -0.252
     21.19        471.9207         1.759          0.278        -0.278
     21.93        455.9964         1.839          0.285        -0.285
     22.7         440.5286         1.916          0.277        -0.277
     23.5         425.5319         1.958          0.259        -0.259
     24.32        411.1842         1.972          0.244        -0.244
     25.18        397.1406         1.968          0.241        -0.241
     26.06        383.7299         1.953          0.254        -0.254
     26.98        370.6449         1.927          0.281        -0.281
     27.93         358.038         1.889          0.321        -0.321
     28.91        345.9011         1.841          0.369        -0.369
     29.92        334.2246         1.802          0.417        -0.417
     30.98        322.7889         1.79           0.454        -0.454
     32.06        311.9152         1.804          0.478        -0.478
     33.19        301.2956         1.836          0.491        -0.491
     34.36        291.0361         1.877          0.498        -0.498
     35.57        281.1358         1.92           0.502        -0.502
     36.82        271.5915         1.963          0.51          -0.51
     38.11        262.3983         2.012          0.531        -0.531
     39.45        253.4854         2.072          0.573        -0.573
     40.83         244.918          2.1            0.6          -0.6
     42.27        236.5744          2.1            0.6          -0.6
     43.76        228.5192          2.1            0.6          -0.6
     45.29        220.7993          2.1            0.6          -0.6
     46.88        213.3106          2.1            0.6          -0.6
     48.53        206.0581          2.1            0.6          -0.6
     50.24        199.0446          2.1            0.6          -0.6
      52          192.3077          2.1            0.6          -0.6
     53.83         185.77           2.1            0.6          -0.6
     55.72        179.4688          2.1            0.6          -0.6
     57.68        173.3703          2.1            0.6          -0.6
     59.71        167.4761          2.1            0.6          -0.6
     61.81        161.7861          2.1            0.6          -0.6
     63.98        156.2988          2.1            0.6          -0.6
     66.23         150.989          2.1            0.6          -0.6
     68.55        145.8789          2.1            0.6          -0.6
     70.96        140.9245          2.1            0.6          -0.6
     73.46        136.1285          2.1            0.6          -0.6
     76.04        131.5097          2.1            0.6          -0.6
     78.71        127.0487          2.1            0.6          -0.6
     81.48        122.7295          2.1            0.6          -0.6
     84.34        118.5677          2.1            0.6          -0.6
     87.3         114.5475          2.1            0.6          -0.6
     90.37        110.6562          2.1            0.6          -0.6
     93.55        106.8947          2.1            0.6          -0.6
     96.83        103.2738          2.1            0.6          -0.6
     100.2         99.8004          2.1            0.6          -0.6
     103.8         96.3391          2.1            0.6          -0.6
     107.4         93.1099          2.1            0.6          -0.6
     111.2         89.9281          2.1            0.6          -0.6
     115.1         86.881           2.1            0.6          -0.6
     119.1         83.9631          2.1            0.6          -0.6
     123.3         81.103           2.1            0.6          -0.6
     127.7         78.3085          2.1            0.6          -0.6
     132.1         75.7002          2.1            0.6          -0.6
     136.8         73.0994          2.1            0.6          -0.6
     141.6         70.6215          2.1            0.6          -0.6
     146.6         68.2128          2.1            0.6          -0.6
     151.7         65.9196          2.1            0.6          -0.6
      157          63.6943          2.1            0.6          -0.6
     162.6         61.5006          2.1            0.6          -0.6
     168.3         59.4177          2.1            0.6          -0.6
     174.2         57.4053          2.1            0.6          -0.6
     180.3         55.4631          2.1            0.6          -0.6
     186.7         53.5619          2.1            0.6          -0.6
     193.2         51.7598          2.1            0.6          -0.6
      200            50             2.1            0.6          -0.6
